  11100 12  1   LUAG5    PUC    BMW  .000 U S1 021093 00.01   1        
  PROGRAM LAMBDA-9   VERSION 02.31                                     
  USER BMW DATE & TIME  1993 02 10 17.03 46.69    9.9300    295K U     
 AU1 HO  50     0     0 LUAG             .300000 -  .600000 .00010     
 FILE NAME                                ON PC = LUAG5.SP             
 NO_POINTS  =  3001.    pts   DATA_INTV =  .000100 æm                  
 MIN_LAMBDA =   .300000 æm     MIN_DATA =    .09440                    
 MAX_LAMBDA =   .600000 æm     MAX_DATA =    .86070                    
 SCANSPEED  = 15.000000 NM/MIN SLITWIDTH=   .20000 NM                  
  RESP TIME =   .5      sec SENSITIVITY = 5          DATE=93/02/10     
 16:32:05    93/02/10                                                  
  LUAG5                                                                
  This spectra is part of Database LASERS
 Database LASERS was created by Pat Cross working 
 at NASA Langley Research Center, Internal Operations Group,
 Aerospace Electronics Systems Division, Remote Sensing 
 Technology Branch. phone:(757)864-1633   fax:(757)864-7894 
     e-mail p.l.cross@larc.nasa.gov 
     homepage http://aesd.larc.nasa.gov/laser/dbmain.htm
  EOH     (1X,F11.4)                                                   
  3001.         
   1041.9603    
   1062.1307    
    551.0080    
    696.8713    
    792.3712    
    765.8397    
    436.7575    
    353.1922    
   1286.3999    
    855.3521    
    796.9172    
    760.6123    
   1113.1317    
    903.4059    
    695.8467    
   1161.4333    
    909.3643    
    931.8564    
    792.3580    
    807.3792    
   1208.0370    
    635.1006    
   1276.2245    
    599.4353    
    733.3956    
   1164.8826    
    395.6916    
    298.0017    
   1073.9810    
    813.2601    
    363.5307    
    939.1247    
    741.0067    
    352.5921    
    859.0549    
    965.1229    
    274.8455    
    621.1670    
    359.0699    
    460.1245    
    381.2858    
    472.8233    
    482.7844    
    749.6033    
    149.3173    
    777.1182    
   1299.4056    
    956.8428    
    443.9262    
    101.3456    
    497.5020    
    611.3318    
    879.8262    
    549.1335    
    638.9858    
   1023.6677    
   1001.7664    
   1051.5363    
    926.0392    
    987.9515    
    916.8638    
    350.0089    
    692.6187    
    792.8660    
    415.6316    
    747.1568    
   1022.3510    
   1427.0094    
   1057.6290    
    670.6172    
    576.4703    
     44.9508    
    812.9194    
    715.6739    
    464.5054    
    641.0306    
    477.1743    
    350.4560    
    458.5939    
    727.3546    
   1145.8619    
    958.1574    
    772.1917    
   1248.9967    
    932.0532    
    545.1056    
    644.5783    
    766.4792    
    886.6641    
    681.9359    
    772.3162    
    887.6222    
      0.0004    
    979.2452    
   1031.3868    
    476.0566    
    879.4001    
    737.9830    
    787.0607    
    721.5772    
    782.8120    
    812.4332    
    923.0305    
    717.9724    
    820.7109    
   1316.0371    
    723.7813    
    309.8932    
    826.8568    
    967.0464    
    812.8150    
    818.0145    
    587.4460    
    505.7666    
   1104.5022    
    787.5095    
    473.0346    
    659.1990    
    642.5419    
    633.1622    
    823.2535    
    354.8089    
   1017.9253    
    873.1295    
    557.3600    
    664.0934    
    562.8007    
    749.7670    
    476.7342    
    510.7047    
    934.1757    
    714.4938    
    812.2739    
    724.8289    
    514.6376    
    842.5230    
    747.6438    
    599.9672    
    885.0645    
    848.6306    
    673.5176    
    927.6908    
    521.8756    
    548.6770    
    568.2731    
    568.5740    
    823.8429    
    685.3304    
    386.9194    
    639.8723    
    664.3997    
    471.6830    
    667.4222    
    909.1951    
    508.6281    
    770.4066    
    661.3416    
    625.3157    
   1043.6266    
    667.0793    
    650.4127    
    747.8325    
    993.0060    
   1101.9984    
    892.8351    
    736.8460    
    406.6164    
    387.7774    
    553.7020    
    655.4869    
    443.7161    
    566.6371    
    983.6287    
    802.5361    
    671.4890    
    869.1107    
    832.7142    
    943.2722    
    889.5784    
    858.0374    
    819.2180    
    799.9814    
    615.7137    
    967.1380    
    852.1457    
    806.0175    
    393.3042    
    704.3675    
    487.3301    
    661.2892    
    805.0147    
    866.3901    
    705.8021    
    723.0898    
    665.1425    
    830.8578    
    921.7308    
    668.4213    
    695.3779    
    562.6535    
    430.8029    
    837.4511    
    757.2628    
    696.7961    
    593.0159    
    425.0344    
    736.5029    
    739.2148    
   1058.0735    
    637.9210    
    742.4905    
    823.1747    
    307.6703    
    516.0479    
    746.0437    
    878.0758    
    656.8221    
    785.8286    
    756.8901    
    467.2950    
    611.9877    
    808.8837    
    889.8184    
    821.6375    
    487.8785    
    912.7019    
    781.0179    
    920.6107    
    844.9986    
    933.4294    
   1037.0419    
    794.5782    
    775.3644    
    654.2634    
    741.8541    
    800.5494    
    935.3499    
    837.6964    
    943.2595    
    992.6919    
   1148.6091    
    873.0065    
    914.9092    
    900.4780    
    676.6340    
   1063.3499    
    906.1902    
   1009.6356    
    855.3416    
    975.7257    
    794.8737    
    998.4036    
   1025.7655    
    981.7197    
    783.7708    
   1090.7539    
    762.4019    
    401.0626    
    933.9356    
    768.0705    
    697.9014    
    565.2551    
    802.9619    
    580.2440    
    655.3708    
    735.6319    
    799.1498    
    680.3741    
    704.8755    
    502.4489    
    478.7188    
    832.1736    
    701.0824    
    906.0463    
    508.5700    
    738.2720    
    663.3775    
    555.0374    
    758.5002    
    550.7471    
    662.0048    
    759.2846    
    825.2989    
    913.5650    
    774.6607    
    852.9300    
    845.8639    
   1010.3800    
    995.8755    
    792.9974    
    783.5179    
    609.2896    
    849.8583    
    633.9497    
    735.9294    
    566.9347    
    468.7140    
    719.7119    
    719.9686    
    834.5731    
   1109.9637    
    908.4147    
    984.7246    
   1145.3883    
   1685.5138    
   1916.1295    
   1220.6213    
    917.2925    
   1231.0800    
   1082.5986    
   1181.8865    
    901.1675    
    769.6840    
    796.7025    
   1012.3680    
   1173.2255    
   1428.1147    
   1734.6700    
   2108.2241    
   2343.7090    
   2246.9197    
   2291.6980    
   1810.0347    
   1492.7780    
   1599.1527    
   1415.3052    
   1604.7206    
   1338.1306    
   1739.9756    
   1845.0930    
   1261.5037    
   1477.1388    
   1951.2542    
   2106.7715    
   1761.8848    
   2055.3774    
   2198.6448    
   2146.7661    
   2139.2058    
   2090.0771    
   1560.0988    
   1361.6123    
   1611.2142    
   1619.0657    
   1920.7286    
   2452.9517    
   2522.0186    
   2775.7456    
   3536.6343    
   3531.3010    
   3177.8464    
   3832.3022    
   3307.4868    
   2624.7351    
   3069.5496    
   3099.7822    
   1988.0951    
    993.4872    
   1141.7159    
    900.8038    
   1077.9371    
   1489.5128    
   1429.3990    
   1530.3325    
   1197.6978    
    924.2758    
   1165.9349    
   1220.7695    
    866.3109    
    742.4102    
    930.3705    
    960.0234    
    943.0989    
    782.2274    
    794.6262    
    846.0171    
   1066.9667    
    807.5057    
    888.2339    
    718.1143    
    766.8770    
    913.3999    
    825.7373    
    935.9061    
    923.8967    
    958.4355    
    710.0745    
    751.5295    
    919.9423    
    776.2853    
    800.8369    
    879.0801    
    913.5381    
    656.0796    
    661.1456    
    678.2988    
    790.0759    
    763.5787    
   1022.8793    
    917.6163    
    759.4200    
   1011.2797    
   1026.2661    
    796.5637    
    692.4812    
    683.0372    
    931.4738    
    714.9626    
   1116.4108    
    710.5782    
    766.5841    
   1016.0447    
   1077.8335    
   1184.3870    
   1289.0117    
   1384.1622    
   1329.3824    
   1339.6000    
   1173.1367    
   1437.7258    
   1285.3979    
   1107.0341    
    878.9003    
    959.8614    
   1004.2624    
   1002.0333    
    874.9234    
   1160.3195    
   1374.6012    
   1502.8503    
   1571.1829    
   1642.2823    
   1528.7240    
   1448.4252    
   1453.6724    
   1229.0786    
   1286.5186    
   1073.6348    
   1349.3416    
   1232.4586    
   1309.8452    
   1437.6624    
   1402.7791    
   1350.4569    
   1762.1727    
   1844.1753    
   2284.5125    
   2086.7866    
   1686.6909    
   1369.2881    
   1108.5956    
   1257.4952    
   1560.9338    
   1310.2360    
   1156.4417    
   1223.5870    
   1607.3140    
   2120.1194    
   2193.1531    
   2156.9324    
   1929.5972    
   1477.2468    
   1153.2472    
   1307.4423    
   1347.5887    
   1475.6073    
   1589.2666    
   1642.6432    
   2328.6433    
   2946.6663    
   2895.5681    
   2702.5071    
   2050.8379    
   1447.1998    
   1057.1377    
   1188.2596    
    956.8821    
    908.1649    
    733.1977    
    687.4367    
   1083.0643    
   1152.4155    
   1259.2686    
   1014.8081    
   1267.1577    
   1163.1687    
   1235.2749    
   1619.0895    
   1897.1145    
   1423.0420    
   1428.2682    
   1095.2778    
   1358.6119    
   1209.4656    
   1130.4702    
    824.2286    
    761.2792    
    642.9917    
    691.4862    
    730.4060    
    913.0670    
   1038.2925    
   1011.4730    
   1320.9999    
   1251.5082    
   1446.4885    
   1414.1047    
   1167.8247    
    951.4350    
    846.6476    
    611.9948    
    996.1770    
    932.6959    
    832.8755    
    940.4509    
    989.6512    
    899.3165    
    882.4386    
    990.2740    
    890.1744    
    705.7563    
    776.2126    
    922.5452    
    893.4409    
    771.9785    
   1043.2914    
    987.0223    
   1036.3278    
    906.6782    
    909.3263    
    997.6545    
    992.9528    
   1143.3263    
    937.0313    
    866.4326    
    971.7097    
    915.6430    
    906.0765    
    957.6257    
   1038.7810    
   1026.6987    
   1105.6641    
   1232.0333    
   1729.6937    
   1587.9512    
   1507.4888    
   1210.5211    
   1425.0438    
   1440.2831    
   1700.4055    
   2049.0220    
   2142.4688    
   2265.0603    
   2328.0459    
   1739.5443    
   1673.6917    
   1862.4596    
   2037.5089    
   2224.5132    
   2766.2764    
   2868.4839    
   2734.5688    
   2392.8257    
   1797.4005    
   1951.2904    
   2015.8743    
   2062.5579    
   2174.2402    
   1959.7988    
   1949.7100    
   2071.1074    
   2143.8567    
   2450.0793    
   2529.4978    
   2887.4109    
   3408.7244    
   4319.1787    
   4651.7612    
   4423.9443    
   3595.5510    
   3590.1692    
   3349.1855    
   2741.3862    
   2373.3250    
   2816.7795    
   2803.5615    
   2916.7114    
   2903.4250    
   2914.4033    
   2766.8284    
   2966.0930    
   2882.6531    
   2762.0562    
   2668.8005    
   2528.3057    
   2380.9055    
   2454.7607    
   2547.4099    
   2830.2307    
   2553.0903    
   2500.3853    
   2311.2859    
   2540.4302    
   2909.2107    
   3530.7747    
   2955.4695    
   2618.0959    
   2325.5220    
   2179.6125    
   2415.1284    
   2512.8677    
   3045.9680    
   3215.1140    
   3778.6289    
   3745.0764    
   3518.9753    
   3229.5613    
   2836.5442    
   2952.5408    
   2673.7717    
   2907.0552    
   2993.6628    
   3102.3992    
   3121.6436    
   2784.2280    
   2741.6077    
   2019.9139    
   1919.7874    
   1909.7159    
   1853.5647    
   2000.0455    
   2189.1558    
   1925.8562    
   2137.5933    
   1951.9093    
   1875.1525    
   1888.1427    
   2349.5146    
   2302.5808    
   1768.6685    
   1824.9501    
   2157.2432    
   3261.8325    
   6333.8862    
   7684.6812    
   5431.7324    
   4913.3662    
   5116.9663    
   4662.3208    
   3145.5562    
   1885.6100    
   1839.7512    
   2669.2632    
   4828.5229    
   5494.5591    
   3721.8364    
   3548.8462    
   4781.8916    
   5306.2588    
   5510.7954    
   6241.4146    
   5146.6060    
   4088.2678    
   3458.5525    
   2370.2048    
   1998.7662    
   1788.9022    
   1503.1763    
   1591.4792    
   1825.1528    
   2015.1257    
   2048.8330    
   2126.5986    
   2348.2388    
   2718.5708    
   2330.2686    
   1844.2905    
   1895.6342    
   1651.3999    
   1352.6675    
   1154.3622    
   1142.2014    
    635.5993    
    831.6171    
    943.8658    
    924.5084    
    827.2925    
    737.7996    
   1121.2543    
    733.3183    
    803.7285    
    654.0511    
    828.3575    
    553.5189    
    481.9439    
    539.5018    
    676.6187    
    616.6188    
    590.3741    
    638.6130    
    593.1269    
    345.1756    
    692.1430    
    536.1206    
    509.9832    
    603.6088    
    955.0810    
    797.0190    
    541.7842    
    657.2156    
    652.5735    
    868.1611    
    710.7839    
    459.0283    
    883.2892    
    718.5508    
    543.1759    
    857.0407    
   1037.9825    
    755.5042    
    789.5816    
    933.2621    
    702.8619    
    477.4564    
    902.0712    
    616.6883    
    585.6460    
    487.6923    
    466.3871    
    590.9606    
    442.8947    
    743.0560    
    371.8987    
    731.3115    
    572.6266    
    623.2064    
    611.3625    
    479.8538    
    520.6328    
    382.5889    
    411.2774    
    504.4110    
    252.9032    
    466.5583    
    538.3957    
    687.4915    
    728.6877    
    488.7086    
    543.8575    
    721.9477    
    472.5106    
    458.3715    
    465.6927    
    399.2068    
    559.2349    
    442.3651    
    356.9778    
    745.0364    
    598.2676    
    603.2361    
    723.7917    
    505.3845    
    400.7116    
    517.6663    
    372.5474    
    717.3807    
     90.0947    
    346.9576    
    611.9360    
    595.2985    
    406.7939    
    672.5583    
    354.8963    
    258.0868    
    711.6292    
    830.3912    
    769.9596    
    668.7314    
   1021.1251    
    865.0625    
    611.5124    
    470.5042    
    904.4982    
    909.5345    
    880.4759    
    241.1901    
    416.5546    
    747.5740    
    543.3060    
    524.3359    
    345.9940    
    237.4524    
    503.3186    
    830.9053    
    770.4785    
    585.1641    
    657.3859    
    611.8787    
    595.2412    
    793.0787    
    785.9725    
    643.7607    
    764.5122    
    646.4877    
    815.6978    
    910.6623    
    811.1697    
    729.0618    
    896.5294    
    879.6528    
   1016.5107    
   1046.0846    
   1016.8301    
    841.4041    
    771.2717    
    737.5847    
    764.3326    
    844.4694    
    861.6340    
    883.6793    
    922.8039    
   1227.5399    
   1529.4130    
   1562.2567    
   1686.0967    
   1364.7545    
   1442.3066    
   1457.4775    
   1563.0455    
   2186.7493    
   2233.6794    
   2239.0413    
   1558.6428    
   1064.2882    
    788.9548    
    969.0943    
    986.3597    
    859.7668    
   1124.0709    
   1237.7947    
   1512.1509    
   2334.5024    
   2781.4023    
   2269.5605    
   1480.1730    
   1310.6560    
   1251.2654    
   1044.3903    
    993.1184    
    699.4860    
    808.4008    
    910.5962    
    842.6658    
    940.1552    
   1178.3185    
   1003.9844    
   1075.2242    
   1522.3118    
   2463.0112    
   3641.3362    
   2418.6453    
   1740.0127    
   2021.2915    
   2878.4128    
   2830.2852    
   1885.8093    
   1733.1647    
   2166.6938    
   1569.2377    
   1087.0372    
   1451.6185    
   2069.0415    
   2242.7671    
   1698.7427    
   1245.6506    
   1818.4265    
   1882.3676    
   1502.7758    
   1450.3297    
   1709.7827    
   1288.6953    
   1581.2740    
   1725.4425    
   1443.5804    
    981.4946    
   1175.6284    
   1131.4149    
   1153.7336    
   1668.1073    
   2237.5242    
   2276.7246    
   1347.4962    
   1487.4802    
   1678.9705    
   1169.5721    
   1182.0576    
   1533.2297    
   1859.9755    
   1603.9673    
   1106.2908    
    879.0760    
    779.7977    
    693.0477    
    712.4742    
    918.6011    
    717.5916    
    875.1010    
   1169.0330    
   1026.6493    
    982.7671    
    851.4006    
    793.3720    
    936.8362    
    905.3172    
    827.7275    
    791.5378    
    786.8435    
    714.5323    
    996.3062    
    857.5737    
    879.5849    
    889.4561    
    850.7281    
    775.7709    
    921.5315    
    882.7437    
    899.9130    
    742.5258    
   1022.2254    
   1066.4800    
    800.9820    
   1010.4233    
    969.0226    
   1059.6984    
   1008.4095    
    874.4678    
    847.9011    
   1111.8405    
    999.2031    
    974.9129    
   1092.6117    
    958.1136    
    814.8184    
    977.9286    
    907.3713    
    929.4299    
   1140.1927    
   1135.4114    
    973.7593    
    951.9383    
    913.0942    
    893.7730    
    874.4689    
    884.3316    
    952.6487    
    901.6374    
   1058.0817    
   1053.3209    
    894.7651    
    902.2032    
    895.0476    
    759.4598    
    769.2654    
    651.3340    
    692.3600    
    757.6085    
    844.8871    
    871.7271    
    969.2612    
    932.8247    
    649.9137    
    705.3833    
    836.0267    
    799.8303    
    766.1155    
    766.2549    
    735.0080    
    853.7031    
    718.4068    
    740.2515    
    880.8308    
    750.1835    
    932.1995    
    907.9929    
    847.3962    
    832.9844    
    959.5672    
    874.5105    
    751.1517    
    770.6107    
    778.0003    
    884.7802    
    863.0590    
    870.4800    
    735.0857    
    902.3478    
    805.4326    
    866.1732    
    851.7476    
    711.6631    
    798.7186    
    849.7327    
    779.6450    
    714.6188    
    729.2167    
    804.2409    
    860.1179    
    984.4088    
    923.5889    
    892.1008    
    948.2200    
    894.8032    
    834.2546    
    953.5024    
    786.1083    
    885.6221    
   1054.1168    
    801.0251    
    726.2913    
    908.0409    
    808.6904    
    680.9440    
    811.3787    
    989.0109    
    930.6172    
    806.9405    
    972.3245    
    965.1394    
    945.7681    
    997.1414    
    839.0954    
    749.7410    
   1007.3163    
    934.2532    
    946.5676    
   1044.4135    
