  11100 11  1 02T9.SP    PWP031 TLL  .000 # S1 072588 00.01   1        
  PROGRAM PE-CONVERT VERSION 02.30                                     
  USER TLL DATE & TIME  1988 08 10 08.55 14.60    4.8400    295K #     
 AU1 HO 200     0     0 YAG              .300000 -  .860000 .00020     
 FILE NAME ON PE-3600 = 002T9.SP          ON PC = 002T0009.SP          
 NO_POINTS  =  2801.    pts   DATA_INTV =  .000200 æm                  
 MIN_LAMBDA =   .300000 æm     MIN_DATA =    .00000                    
 MAX_LAMBDA =   .860000 æm     MAX_DATA =  43301.00                    
 SCANSPEED  = .03000000 æm/min SLITWIDTH=   .00020 æmITA =   0.        
       RESP =    .500   sec        ISMS =   0.       DATE=88/07/25     
       INST = 509.                    ? =   0.                         
 HO:YAG(2%HO);4.84MM THICK;.5SEC RES.                                  
  This spectra is part of Database LASERS
 Database LASERS was created by Pat Cross working 
 at NASA Langley Research Center, Internal Operations Group,
 Aerospace Electronics Systems Division, Remote Sensing 
 Technology Branch. phone:(757)864-1633   fax:(757)864-7894 
     e-mail p.l.cross@larc.nasa.gov 
     homepage http://aesd.larc.nasa.gov/laser/dbmain.htm
  EOH     (1X,F11.4)                                                   
  2801.         
    683.6170    
    700.7911    
    595.7250    
    577.0128    
    426.5220    
    465.3195    
    536.1831    
    392.4506    
    387.2454    
    428.5146    
    394.3431    
    607.6328    
    502.7054    
    621.9917    
    600.5536    
    349.9956    
    477.2022    
    453.4345    
    497.5695    
    297.9962    
    331.9022    
    457.9426    
    329.3613    
    361.6100    
    446.5708    
    424.6350    
    585.5490    
    419.4135    
    406.2906    
    449.2917    
    326.1068    
    541.1279    
    398.4794    
    436.1614    
    405.5008    
    433.5438    
    307.1355    
    412.5254    
    426.5440    
    389.8047    
    439.7002    
    492.4737    
    402.9171    
    320.2128    
    354.0864    
    383.7034    
    348.8708    
    352.3463    
    495.0413    
    328.8934    
    368.8640    
    304.6310    
    606.6042    
    467.6684    
    404.5722    
    364.4606    
    347.9327    
    357.4763    
    312.3637    
    376.5807    
    356.5562    
    320.1097    
    366.0777    
    330.4671    
    474.4076    
    400.8400    
    362.5042    
    446.2324    
    462.8526    
    351.1319    
    220.0399    
    462.7366    
    440.7922    
    378.8055    
    336.2368    
    292.1241    
    355.2399    
    313.6399    
    421.3061    
    254.9840    
    402.0271    
    392.4007    
    327.2812    
    441.1596    
    377.4744    
    420.0904    
    347.0109    
    430.4568    
    371.1945    
    438.2037    
    342.4828    
    336.3732    
    409.2358    
    303.4512    
    347.4600    
    389.0417    
    471.8791    
    311.8582    
    237.0325    
    332.4628    
    303.9253    
    358.2937    
    333.1414    
    346.0450    
    334.7401    
    254.6346    
    344.1129    
    302.6249    
    340.5160    
    351.6854    
    330.0090    
    265.4006    
    267.9057    
    369.5661    
    344.3955    
    369.4081    
    393.6093    
    430.9224    
    367.4326    
    441.2045    
    653.4154    
    281.8351    
    370.5573    
    452.1762    
    515.0992    
    714.4277    
    431.8419    
    365.7845    
    580.7208    
    320.7190    
    396.6915    
    422.6511    
    434.7321    
    425.0589    
    351.2996    
    308.9825    
    279.6961    
    430.7318    
    399.3573    
    407.0602    
    328.2891    
    384.3120    
    349.6355    
    294.4623    
    381.3948    
    435.9428    
    401.9627    
    395.7842    
    367.1238    
    509.6616    
    780.1607    
   1005.3902    
   1017.1721    
   1783.2162    
    940.7858    
   1026.7777    
    677.3313    
    499.0244    
    805.9408    
   1486.0836    
   1645.8060    
   2266.5496    
   1853.5029    
   1120.5331    
   1194.8661    
   1334.9043    
   1315.7605    
   2194.5042    
   1973.1774    
   1692.5817    
   2492.2908    
   1904.0746    
   1262.6357    
   3193.6091    
   2216.1230    
   5200.8125    
   4228.7036    
   1917.4657    
   3407.9944    
   1133.1824    
    843.7380    
    833.6357    
   1600.5618    
    917.4622    
    723.7033    
    629.4238    
    620.4272    
    693.8032    
    698.9692    
    684.5748    
    608.2996    
    645.2273    
    679.6188    
    575.2386    
    475.3954    
    453.5080    
    502.0856    
    495.8206    
    633.4195    
    553.1805    
    457.0592    
    662.9655    
    556.1807    
    509.6628    
    590.0745    
    646.3222    
    654.1007    
   1011.1903    
   1204.1293    
   1111.9628    
   1054.5817    
    767.8869    
    713.2997    
    722.0056    
    851.6693    
   1267.9620    
   1794.0551    
   1540.2631    
   1184.0922    
    862.3575    
    922.7455    
    983.4775    
   1130.2616    
   1766.3813    
   1854.0333    
   1481.4705    
   1166.3870    
   1441.7711    
   1227.3473    
   1921.1805    
   2575.1489    
   1099.5055    
    931.0049    
   1547.4363    
   2636.5540    
   2032.6818    
   2377.0112    
   1829.2529    
    699.2489    
    636.2899    
    549.2274    
    791.2208    
   1040.8180    
    977.5620    
   1332.0392    
   1161.7104    
    849.2983    
    804.2195    
   1035.7080    
    617.5216    
    561.2172    
    623.2595    
    646.8187    
    684.5690    
    976.7650    
   1338.4839    
    722.9000    
    752.8992    
    702.0676    
    638.2797    
    633.6649    
    639.6085    
    648.1968    
    631.2568    
    804.8309    
    965.8979    
    874.3367    
    708.0326    
    629.2862    
    667.8069    
    772.1932    
    928.1603    
   1280.2566    
   1229.5695    
   1537.3822    
   1952.9991    
   2392.2334    
   1852.9480    
   1537.1213    
   1837.4574    
   2485.8916    
   2864.4216    
   2226.6702    
   1759.4214    
   1819.0133    
   1913.6794    
   2270.3467    
   2626.9312    
   3116.1218    
   4893.8262    
   5152.3130    
   4239.9253    
   3761.4053    
   3082.5625    
   2257.0022    
   2216.6387    
   2843.6316    
   3362.5544    
   3208.9031    
   3083.0735    
   3784.3796    
   4205.3447    
   3869.3247    
   2438.8804    
   2330.3857    
   2594.9031    
   3426.7581    
   4795.8540    
   4642.7837    
   3625.9502    
   3002.5706    
   3255.5361    
   3547.3191    
   2651.0115    
   2100.6167    
   1884.2587    
   2087.7402    
   2262.3904    
   2473.4856    
   2898.5342    
   3177.9063    
   7228.0171    
   6963.2798    
   5753.6108    
   4616.7246    
   2812.1082    
   6427.0015    
   3362.1101    
   3526.0215    
   7741.4443    
   5755.1035    
   4438.4688    
   2582.2202    
   1782.3451    
   1560.2744    
   1658.0945    
   2419.9778    
   2818.4858    
   1988.0570    
   1941.8683    
   1235.9120    
    820.9391    
    801.0756    
    659.4535    
    544.0281    
    532.5032    
    327.2018    
    380.6186    
    384.6469    
    263.8366    
    344.9548    
    408.7130    
    264.8262    
    264.5923    
    343.9939    
    381.2379    
    348.6148    
    279.6961    
    391.6013    
    387.0848    
    311.9840    
    189.5853    
    385.4884    
    194.1473    
    202.2939    
    276.0964    
    303.7551    
    239.3772    
    262.7195    
    214.5368    
    332.4410    
    367.8991    
    280.3120    
    234.5776    
    257.8975    
    224.0155    
    189.4109    
    212.6261    
    158.8589    
    146.1176    
    269.0708    
    269.6672    
    258.4675    
    335.9781    
    226.0291    
    309.2087    
    256.6363    
    190.9471    
    238.4820    
    227.3192    
    259.0078    
    225.1463    
    265.2432    
    404.8770    
    243.7107    
    202.3711    
    321.6418    
    348.5069    
    320.2805    
    341.2003    
    308.7675    
    347.4643    
    550.2480    
    426.1357    
    491.8930    
    588.4080    
    686.6995    
    405.4208    
    423.0781    
    468.1819    
    627.8604    
   1210.0073    
   1145.3486    
   1127.6270    
   1399.6544    
   2166.7529    
   1100.1506    
    715.9182    
    434.8760    
    435.4552    
    809.4215    
   1989.8293    
   2238.7678    
    935.0901    
    615.0870    
    456.8882    
    590.1852    
    554.3950    
    691.5705    
   3199.6655    
   1353.6610    
    647.8500    
   1767.2299    
   3985.6763    
   1302.8700    
    945.5750    
    765.5826    
   1443.9312    
   1968.8439    
    973.0153    
    868.8782    
   1999.3213    
    849.5582    
    605.9901    
    798.3990    
   1168.9036    
   1891.5067    
   1134.3617    
    761.8397    
    884.6833    
    972.9726    
    321.2673    
    269.6414    
    305.5333    
    389.8494    
    396.3614    
    299.6459    
    242.2788    
    225.2752    
    317.3442    
    257.3708    
    331.1251    
    324.0918    
    400.0131    
    485.0517    
    371.4320    
    479.3199    
    411.6060    
    489.8614    
    626.7255    
    432.0121    
    285.3515    
    344.8843    
    615.9395    
    466.6763    
    363.4660    
    358.1000    
    340.0650    
    532.3516    
    274.6922    
    135.2715    
    198.0805    
    175.3488    
    154.3273    
    212.2378    
    209.4574    
    147.6994    
    184.7615    
    191.1336    
    209.1655    
    200.5570    
    197.7782    
    218.3188    
    210.5347    
    255.3307    
    215.8005    
    223.0188    
    227.7375    
    189.9808    
    249.7107    
    157.0548    
    165.8900    
    183.8626    
    175.2771    
    222.3948    
    238.7901    
    241.0046    
    209.0393    
    178.8344    
    274.4153    
    251.5360    
    242.0577    
    239.2619    
    245.6483    
    242.0171    
    235.0500    
    176.5435    
    249.4874    
    191.7346    
    167.3925    
    210.2700    
    183.3966    
    219.6725    
    191.1145    
    244.9215    
    173.1175    
    201.8679    
    246.5375    
    252.9183    
    269.3325    
    297.5013    
    237.0117    
    240.0497    
    284.0308    
    272.0159    
    300.1832    
    340.2018    
    316.3573    
    344.6383    
    362.8685    
    332.2444    
    340.3487    
    381.3510    
    354.8877    
    378.1953    
    379.5714    
    441.9358    
    401.7686    
    406.5328    
    419.7704    
    461.9174    
    487.1572    
    452.7703    
    475.4294    
    574.4074    
    569.7773    
    534.2606    
    588.0439    
    651.6298    
    701.6635    
    751.0603    
    835.9056    
    816.1687    
    795.5927    
    804.9072    
    837.1306    
    870.3359    
    894.7736    
   1370.6857    
   3927.3252    
   2492.5093    
   2954.3633    
   4997.7988    
   5871.5776    
   4288.0439    
   6457.1118    
   6632.2153    
   1707.4869    
   1228.4327    
   1507.2487    
   4397.5918    
   2421.9685    
   2879.2747    
   6234.4971    
   7976.8672    
   4999.3130    
   3168.7588    
   5929.2285    
   6298.1860    
   6328.6357    
  13807.8428    
  12255.7148    
  11154.7744    
   7783.0029    
   8072.1265    
  17920.5977    
  15661.1064    
   3999.1404    
   2070.4382    
   1139.1456    
    906.6379    
    969.3752    
   1077.4374    
   1719.0592    
   5631.1489    
  15406.5127    
   8607.8340    
   6282.6289    
   1797.6367    
   1829.0981    
   1629.1416    
   1128.1119    
   1047.5017    
   1056.0972    
   1132.3650    
   1207.3684    
   1832.6857    
   1974.6007    
   2214.5017    
   2592.6470    
   2093.6448    
   1349.9513    
   1070.5868    
   1341.7349    
   2688.3845    
   3163.4639    
   1531.4684    
   2299.7983    
   2458.4968    
   2323.1208    
   1626.0608    
    974.0297    
    840.9177    
   1195.5896    
   1202.4675    
   1136.7260    
   2993.2561    
   3647.3547    
   1510.3246    
   1086.4156    
    498.2911    
    285.0763    
    285.5811    
    260.3016    
    206.1256    
    179.3966    
    223.6728    
    247.3762    
    240.4164    
    245.8940    
    154.7528    
    199.7372    
    219.2442    
    213.1319    
    251.7239    
    241.4459    
    272.6549    
    291.4579    
    281.1403    
    251.7404    
    253.8999    
    246.9370    
    216.8128    
    315.2967    
    345.0386    
    376.5417    
    376.2013    
    378.3786    
    384.7536    
    311.6167    
    329.6388    
    363.5982    
    300.6104    
    315.2748    
    323.2791    
    322.1075    
    347.6653    
    398.4691    
    404.8503    
    360.8697    
    394.0746    
    466.2204    
    421.9801    
    440.1775    
    453.3337    
    504.6357    
    536.5845    
    622.5756    
    669.5342    
    657.9612    
    637.8015    
    635.7164    
    672.3691    
    744.6947    
    806.1599    
    858.3249    
    885.1906    
    938.6318    
    987.9012    
   1010.6396    
    994.2181    
   1089.4207    
   1088.1147    
   1106.5693    
   1119.6543    
   1106.6511    
   1108.9379    
   1154.4811    
   1154.0659    
   1192.5491    
   1241.1826    
   1232.5696    
   1280.4712    
   1327.6730    
   1335.5077    
   1328.6483    
   1316.2914    
   1325.0330    
   1357.6864    
   1490.6478    
   1526.6254    
   1584.3402    
   1634.8070    
   1731.2164    
   1952.5448    
   2339.3501    
   3898.7925    
   6655.7646    
   6444.8398    
   7568.6123    
   7381.1563    
   3141.4385    
   2342.7417    
   2461.2778    
   2650.7883    
   2865.0842    
   3372.6848    
   5256.2075    
  14233.9414    
  17371.8438    
  10713.3633    
  20793.4434    
  16041.6104    
   7907.9595    
   7550.7095    
  11293.4150    
  14735.7500    
   5864.4517    
   6618.3755    
   7793.6465    
   4200.3530    
   3224.5884    
   3526.7288    
   4984.7012    
   6949.1387    
   9100.8477    
   9662.6816    
   8153.1416    
   5198.1196    
   3739.6663    
   4751.8623    
   5465.4414    
   4913.5640    
   3808.9006    
   4316.5537    
   7854.5679    
  17144.9336    
  43301.3516    
  20800.3477    
  15717.2783    
  10637.1553    
  18941.4336    
  10408.4541    
   4533.3911    
   4162.3159    
   6319.4131    
   6961.2129    
   4987.0156    
   4068.3052    
   4990.5732    
   7731.6045    
  11482.8027    
  14491.1318    
  13332.0801    
  11834.9521    
   6993.9424    
   5646.8745    
   4974.8096    
   5642.2622    
   3734.2751    
   2522.3442    
   2889.6951    
   2399.7754    
   2099.2515    
   1994.8036    
   2602.0081    
   2853.8188    
   2228.0640    
   1668.3096    
   1505.6324    
   1441.1891    
   1371.6394    
   1345.5161    
   1315.8081    
   1288.9191    
   1243.9514    
   1233.5458    
   1282.1343    
   1596.7384    
   2185.9209    
   2878.4329    
   2968.4915    
   3638.2515    
   4592.2886    
   3247.8264    
   2348.8662    
   3095.8425    
   2682.9258    
   3406.0300    
   3555.0273    
   3611.1785    
   3558.2280    
   2002.0802    
   3644.5332    
   3318.7310    
   1434.4185    
   1213.9489    
   1508.5071    
   1242.0134    
   1164.8861    
    902.6573    
    883.8617    
    941.3362    
   1413.2533    
   1213.1533    
   1207.2994    
   1546.1998    
   1650.6782    
   1817.2858    
   1443.6908    
   1934.6714    
   2254.5957    
   2684.1399    
   3690.4629    
   4810.5059    
   1652.4988    
   5107.0918    
   2438.6501    
   2931.2117    
   1101.6012    
    949.6708    
   2203.4626    
   1495.9552    
   1577.3971    
   1680.2211    
   1834.7169    
   1805.5232    
   2974.8618    
   4668.4658    
   3566.7654    
   3323.2195    
   5745.9668    
   3730.2407    
   2496.9456    
   2845.2332    
   1459.3746    
   2095.8208    
   1846.9408    
   1323.1670    
   1577.2787    
   1821.5098    
   1699.3635    
   2399.4734    
   4844.3223    
   4824.3062    
   6919.2783    
   4774.2114    
   2801.6768    
   1897.1276    
   1798.8911    
   1354.2012    
   1015.9193    
   1022.5650    
   1126.1324    
   1272.3334    
   1591.1304    
   2450.4487    
   3691.1780    
   4148.0874    
   3316.5942    
   2407.6892    
   1875.1711    
   1466.1696    
   1358.2965    
   1051.9369    
   1134.2742    
   1042.2130    
    863.5648    
    955.8161    
   1219.5291    
   1036.9456    
   1162.9430    
   1060.0002    
   1085.3173    
   1185.8246    
   1386.5955    
   2954.5271    
   4548.1553    
   2531.7578    
   4722.0132    
   2320.1533    
   3912.5696    
   4636.5303    
   5722.2144    
   3545.4897    
   2301.3987    
   1469.6587    
   1183.6235    
   1052.1656    
    958.2886    
   1035.3701    
   1402.0602    
   1834.6110    
   3185.0876    
   4379.6079    
   5119.4473    
   3208.2295    
   3903.4331    
   5552.3042    
  10874.2197    
   8577.7158    
   8131.3193    
   2941.7717    
   6555.3184    
   3582.7139    
   1793.7554    
    698.2606    
    583.0635    
    625.0284    
    636.5189    
   1001.1199    
   1621.0880    
   3254.7458    
   9065.9531    
  12694.1162    
   3734.5281    
   2023.5990    
   1739.3961    
   1441.6815    
    538.6587    
    448.6175    
    400.7935    
    422.8494    
    591.0573    
    930.1852    
   1441.1301    
   1313.8326    
   1077.6074    
   1262.2603    
   1431.8986    
   1444.2727    
   1494.4197    
   1085.1503    
    881.0216    
    765.6241    
    813.4579    
    624.7845    
    478.7285    
    629.9134    
   1011.3976    
    834.6934    
    491.3761    
    402.6579    
    364.1789    
    405.2036    
    355.9766    
    382.0517    
    487.3408    
    645.3753    
    656.0137    
    569.2698    
    469.0561    
    749.5545    
   1630.4117    
   1102.8779    
    557.1584    
    393.0958    
    513.5257    
   1083.3669    
    701.3109    
    545.9052    
    549.7085    
    350.2772    
    335.8814    
    238.7740    
    218.0236    
    190.8170    
    186.3860    
    188.4494    
    186.4535    
    186.0812    
    143.5992    
    149.6969    
    158.2254    
    153.8103    
    173.6790    
    166.8277    
    152.7006    
    158.8011    
    164.0940    
    123.3309    
    131.8360    
    153.2739    
    149.6701    
    169.5224    
    147.3124    
    159.8764    
    149.8033    
    136.5127    
    135.3356    
    113.2044    
    141.0506    
    140.6798    
    131.4348    
    148.8213    
    139.5692    
    126.2949    
    131.5675    
    135.2288    
    148.5780    
    144.9759    
    123.6384    
    172.5215    
    147.8979    
    133.8088    
    170.5905    
