  11100 11  1 02T17.SP   PWP031 TLL  .000 # I1 081288 00.01   1        
  PROGRAM PE-CONVERT VERSION 02.30                                     
  USER TLL DATE & TIME  1988 08 16 10.01 07.09    4.8400    295K #     
 AU1 HO 200     0     0 YAG              .840000 - 1.400000 .00020     
 FILE NAME ON PE-3600 = 002T17.SP         ON PC = 002T0017.SP          
 NO_POINTS  =  2801.    pts   DATA_INTV =  .000200 æm                  
 MIN_LAMBDA =   .840000 æm     MIN_DATA =   0.00010                    
 MAX_LAMBDA =  1.400000 æm     MAX_DATA =  5297.400                    
 SCANSPEED  = .03000000 æm/min SLITWIDTH=   .00020 æmITA =   0.        
       RESP =    .500   sec        ISMS =   0.       DATE=88/08/12     
       INST = 509.                    ? =   0.                         
 HO:YAG(2%HO);.5SEC. RES.;SAMPLE CODE WP031                            
  This spectra is part of Database LASERS
 Database LASERS was created by Pat Cross working 
 at NASA Langley Research Center, Internal Operations Group,
 Aerospace Electronics Systems Division, Remote Sensing 
 Technology Branch. phone:(757)864-1633   fax:(757)864-7894 
     e-mail p.l.cross@larc.nasa.gov 
     homepage http://aesd.larc.nasa.gov/laser/dbmain.htm
  EOH     (1X,F11.4)                                                   
  2801.         
      0.0001    
      0.0145    
      0.0289    
      0.0433    
      0.0577    
      0.0721    
      0.0865    
      0.1009    
      0.1153    
      0.1298    
      0.1442    
      0.1586    
      0.1730    
      0.1874    
      0.2018    
      0.2162    
      0.2306    
      0.2450    
      0.2594    
      0.2738    
      0.2882    
      0.3026    
      0.3170    
      0.3314    
      0.3458    
      0.3602    
      0.3746    
      0.3890    
      0.4034    
      0.4178    
      0.4322    
      0.4466    
      0.4610    
      0.4754    
      0.4898    
      0.5042    
      0.5186    
      0.5330    
      0.5474    
      0.5618    
      0.5762    
      0.5906    
      0.6050    
      0.6194    
      0.6338    
      0.6482    
      0.6626    
      0.6770    
    178.1561    
    182.5769    
    177.2269    
    175.9484    
    172.2297    
    173.3930    
    166.4223    
    164.3336    
    164.6831    
    161.7811    
    154.0074    
    153.5458    
    149.8358    
    143.6945    
    144.8552    
    140.3390    
    130.9643    
    129.6935    
    132.4731    
    127.9633    
    125.8825    
    124.6136    
    120.9162    
    117.2223    
    123.2340    
    122.7739    
    115.8434    
    112.9594    
    103.6131    
    110.4244    
    109.1573    
    105.4679    
    103.3950    
    101.3207    
    102.4771    
    101.2123    
     95.1050    
    101.9101    
     94.9970    
    100.1863    
     95.6947    
     93.6237    
     90.7489    
     89.4853    
     85.8041    
     90.9880    
     89.7253    
     88.4620    
     86.3941    
     81.1039    
     80.6482    
     83.4119    
     85.3716    
     81.6940    
     80.4312    
     82.3911    
     83.5439    
     88.7245    
     81.0210    
     80.5635    
     81.7179    
     84.4818    
     83.2188    
     78.7385    
     79.0868    
     77.8257    
     83.8080    
     85.7656    
     78.0669    
     76.0027    
     78.7634    
     79.9152    
     79.4597    
     77.3954    
     80.1560    
     74.0705    
     84.8759    
     80.3967    
     86.3759    
     84.3094    
     87.0720    
     92.2498    
     93.4041    
    101.8062    
     96.5155    
     92.8372    
    102.0449    
    102.3928    
    107.5765    
    108.7297    
    105.0483    
    108.6199    
    108.9677    
    118.1879    
    116.1148    
    121.3037    
    134.5729    
    132.4962    
    133.6519    
    136.4231    
    143.2390    
    150.8663    
    151.2139    
    158.0374    
    156.7663    
    162.7825    
    176.9095    
    183.7481    
    186.5312    
    195.8122    
    196.9723    
    198.9453    
    214.7457    
    215.0930    
    219.5106    
    229.6343    
    234.8728    
    245.8258    
    256.7897    
    257.1369    
    271.3845    
    275.8232    
    289.2752    
    296.1811    
    306.3735    
    313.2898    
    316.1017    
    328.7799    
    345.5912    
    348.4095    
    356.1761    
    365.5979    
    387.4279    
    391.0834    
    403.0200    
    413.3120    
    415.3165    
    425.6196    
    441.7487    
    452.0757    
    462.4132    
    469.4255    
    473.9401    
    484.2967    
    498.0058    
    501.6953    
    507.0597    
    509.9151    
    521.1425    
    531.5438    
    541.9540    
    553.2140    
    551.8806    
    555.5875    
    569.3844    
    576.4617    
    576.8082    
    583.8908    
    595.1935    
    598.9127    
    601.7902    
    607.1996    
    608.3903    
    602.8293    
    609.9262    
    617.8735    
    616.5300    
    616.0324    
    623.1370    
    653.9544    
    667.0236    
    666.5210    
    666.0194    
    659.5791    
    654.8385    
    654.3369    
    662.3129    
    655.0291    
    651.9850    
    649.7902    
    645.9011    
    649.6351    
    644.0539    
    643.5533    
    637.9760    
    628.1760    
    629.3661    
    626.3333    
    619.9211    
    613.5143    
    607.9553    
    601.5566    
    606.9611    
    603.0911    
    601.7521    
    598.7270    
    594.8618    
    596.0497    
    595.5532    
    593.3724    
    589.5099    
    589.0139    
    581.7889    
    579.6128    
    574.0756    
    562.6657    
    562.1719    
    560.8390    
    561.1844    
    558.1749    
    553.4884    
    547.9673    
    549.1507    
    549.4961    
    546.4908    
    543.4856    
    540.4824    
    533.2964    
    527.7880    
    523.1185    
    522.6281    
    518.7968    
    511.6277    
    504.4640    
    504.8092    
    503.4872    
    496.3302    
    487.5141    
    479.5371    
    470.7355    
    471.0806    
    458.9675    
    453.5035    
    437.2684    
    422.7152    
    418.9258    
    406.8764    
    398.9664    
    390.2393    
    373.2863    
    364.5814    
    350.1359    
    347.1962    
    336.0554    
    325.7465    
    315.4485    
    300.2573    
    286.7224    
    273.2051    
    263.7767    
    255.9835    
    242.5097    
    233.1101    
    225.3427    
    219.2017    
    207.3959    
    195.6063    
    188.6764    
    184.9813    
    174.8329    
    170.3368    
    164.2325    
    154.1052    
    154.4497    
    149.1588    
    149.5032    
    142.6077    
    138.1286    
    133.6527    
    132.3892    
    135.1439    
    129.0626    
    127.8018    
    124.1331    
    126.8845    
    127.2288    
    126.7692    
    123.1023    
    122.6431    
    122.1858    
    124.1347    
    124.4788    
    121.6136    
    123.5622    
    127.9186    
    125.0517    
    131.0139    
    132.9637    
    126.8870    
    131.2421    
    134.7976    
    137.5508    
    139.5012    
    135.8293    
    134.5672    
    134.1092    
    140.8766    
    146.0405    
    140.7600    
    146.7281    
    151.0911    
    153.8462    
    152.5816    
    152.1223    
    155.6805    
    160.8499    
    165.2175    
    166.3652    
    168.3189    
    173.4935    
    169.0061    
    172.5716    
    176.9410    
    183.7311    
    184.8818    
    185.2253    
    188.7924    
    191.5557    
    193.5127    
    193.8561    
    192.5859    
    204.2274    
    196.5000    
    199.2645    
    199.6078    
    199.9511    
    202.7142    
    204.6732    
    211.4772    
    214.2437    
    212.1637    
    223.8227    
    221.7396    
    230.1716    
    232.9419    
    231.6662    
    234.4377    
    229.9246    
    241.6003    
    245.1841    
    252.8215    
    253.9745    
    255.1295    
    259.5273    
    267.9858    
    273.2007    
    281.6694    
    282.0123    
    286.4200    
    292.4566    
    296.0540    
    302.9101    
    305.6967    
    312.5584    
    307.1971    
    311.6136    
    316.8472    
    313.1142    
    319.1637    
    315.4291    
    314.1423    
    318.5606    
    314.8276    
    315.9854    
    320.4040    
    319.9311    
    321.0892    
    315.7254    
    316.8831    
    309.0780    
    309.4205    
    298.3678    
    295.4572    
    291.7336    
    278.2663    
    278.6087    
    267.5917    
    267.1230    
    265.8435    
    260.5121    
    255.9930    
    254.7163    
    252.6300    
    249.7338    
    248.4572    
    246.3716    
    232.1619    
    232.5042    
    224.7701    
    224.3049    
    218.9982    
    215.3076    
    210.8123    
    211.9616    
    209.0782    
    209.4202    
    205.7339    
    202.8546    
    199.9753    
    194.6835    
    190.1999    
    183.3059    
    185.2547    
    175.9557    
    173.8882    
    167.0075    
    164.1401    
    159.6708    
    153.6010    
    153.9428    
    155.0869    
    153.0239    
    149.3623    
    146.5000    
    146.8418    
    139.9821    
    141.1230    
    142.2658    
    135.4081    
    138.1499    
    134.4931    
    134.8347    
    131.9787    
    123.5338    
    127.0702    
    128.2097    
    131.7483    
    129.6917    
    126.0400    
    125.5828    
    125.1257    
    128.6608    
    126.6071    
    127.7472    
    131.2827    
    127.6313    
    131.1675    
    133.1057    
    139.8398    
    136.1864    
    138.1243    
    136.8690    
    141.2049    
    143.1452    
    142.6868    
    141.4291    
    140.9718    
    148.5076    
    152.0479    
    152.3890    
    146.3319    
    146.6730    
    149.4143    
    155.3538    
    154.8955    
    150.4374    
    151.5773    
    147.1209    
    153.0592    
    158.2000    
    152.9411    
    153.2820    
    157.6232    
    154.7637    
    152.7050    
    155.4455    
    156.5872    
    148.1325    
    150.0712    
    150.4119    
    151.5522    
    147.0988    
    143.4445    
    141.3890    
    134.5452    
    132.4918    
    130.4399    
    128.3876    
    123.9450    
    117.1154    
    118.2517    
    116.2034    
    110.1748    
    111.3114    
    106.0819    
    106.4224    
     97.2214    
    102.3315    
     90.7506    
     89.5034    
     95.4040    
     90.1842    
     87.3481    
     90.0708    
     84.8543    
     81.2276    
     80.7745    
     83.4952    
     84.6282    
     81.7954    
     77.3773    
     74.5460    
     74.0944    
     74.4346    
     77.1523    
     69.5674    
     69.1163    
     74.2100    
     72.1726    
     71.7212    
     74.4377    
     69.2325    
     64.8219    
     69.9126    
     71.8370    
     71.3848    
     70.9326    
     71.2726    
     70.0285    
     68.7855    
     69.9164    
     69.4653    
     67.4299    
     64.6035    
     66.5264    
     71.6158    
     70.3719    
     63.5897    
     63.9295    
     67.4348    
     59.0727    
     60.9933    
     64.4973    
     63.2548    
     62.0124    
     61.5621    
     68.2299    
     67.7773    
     58.6273    
     62.1298    
     61.6786    
     62.8090    
     63.9394    
     64.2790    
     59.8751    
     61.7958    
     63.7158    
     67.2189    
     65.9764    
     60.7811    
     63.4932    
     66.9947    
     68.1241    
     63.7198    
     61.6886    
     59.6570    
     62.3673    
     61.1259    
     63.8354    
     61.0142    
     60.5642    
     60.1124    
     58.8725    
     63.1615    
     60.3409    
     59.1001    
     61.8084    
     60.5684    
     61.6976    
     63.6169    
     56.8469    
     61.1349    
     55.9469    
     57.0755    
     61.3622    
     55.3851    
     53.3572    
     56.0631    
     60.3498    
     62.2673    
     60.2371    
     57.4189    
     54.6017    
     58.0968    
     63.1721    
     66.6705    
     63.0610    
     58.6638    
     69.2661    
     66.4459    
     74.6845    
     78.1857    
     76.9431    
     80.4447    
     78.4121    
     90.6147    
     88.5799    
     91.2920    
     95.5892    
     96.7188    
    106.5631    
    108.4871    
    107.2403    
    106.7872    
    103.9568    
    105.8792    
    107.8028    
    103.3878    
     99.7659    
     96.9381    
     90.9459    
     84.9576    
     79.7635    
     80.1019    
     77.2806    
     71.3014    
     70.8502    
     63.2975    
     64.4247    
     62.3964    
     55.6400    
     49.6752    
     53.9521    
     51.1395    
     44.3907    
     45.5163    
     44.2799    
     42.2576    
     45.7435    
     41.3600    
     40.9113    
     34.9573    
     41.5875    
     41.9256    
     42.2637    
     40.2424    
     35.8623    
     39.3452    
     39.6832    
     37.6618    
     34.8557    
     38.3378    
     38.6757    
     37.4410    
     39.3516    
     40.4759    
     35.3111    
     40.3653    
     39.1305    
     37.1107    
     42.1652    
     37.7864    
     35.7662    
     32.9618    
     35.6568    
     38.3514    
     41.0475    
     39.0269    
     37.7927    
     35.7738    
     37.6831    
     38.8057    
     40.7152    
     33.9829    
     32.7497    
     33.0873    
     38.9220    
     41.6172    
     43.5268    
     37.5785    
     36.3459    
     40.6097    
     37.8054    
     36.5719    
     34.5543    
     30.1823    
     36.0135    
     37.9217    
     39.0455    
     35.4561    
     35.0083    
     34.5606    
     38.8240    
     39.1613    
     33.2185    
     28.0630    
     31.5387    
     33.4455    
     36.1375    
     34.9048    
     30.5347    
     29.3029    
     29.6401    
     34.6839    
     37.3746    
     33.0041    
     29.4199    
     33.6783    
     32.4463    
     31.2155    
     35.4751    
     32.6740    
     26.7385    
     33.3480    
     33.6850    
     35.5909    
     33.5745    
     28.4234    
     31.8965    
     31.4484    
     34.9222    
     34.4748    
     29.3240    
     31.2287    
     32.3495    
     33.4695    
     33.0232    
     30.2242    
     32.9127    
     24.6310    
     32.8022    
     34.7070    
     30.3413    
     30.6780    
     23.1816    
     28.2171    
     33.2546    
     36.7270    
     31.5767    
     30.3471    
     32.2499    
     35.7215    
     33.7076    
     34.0442    
     28.1140    
     27.6673    
     24.0896    
     33.0394    
     30.2422    
     32.9288    
     32.4818    
     31.2516    
     33.1547    
     32.7086    
     30.6952    
     30.2485    
     24.3228    
     28.5721    
     32.8238    
     31.5938    
     34.2787    
     28.3515    
     32.6026    
     31.3727    
     31.7089    
     33.6113    
     30.8164    
     28.8043    
     32.2707    
     31.0412    
     29.0301    
     28.5836    
     27.3547    
     27.6908    
     31.1571    
     27.5814    
     27.1342    
     30.6000    
     30.1544    
     28.9255    
     31.6080    
     28.8142    
     28.3687    
     27.1403    
     31.3868    
     34.0703    
     32.0586    
     27.7017    
     25.6925    
     26.8094    
     33.4020    
     35.3029    
     33.2921    
     25.0261    
     31.6168    
     28.8242    
     31.5061    
     32.6240    
     28.2685    
     34.0777    
     34.4134    
     27.7119    
     28.8293    
     31.5097    
     27.9381    
     29.8362    
     30.1718    
     35.1983    
     33.1877    
     28.8334    
     26.0438    
     30.2870    
     32.9669    
     31.7388    
     30.5109    
     26.1586    
     28.8382    
     31.5173    
     31.0720    
     31.4074    
     26.2733    
     24.2664    
     24.6018    
     25.7181    
     26.8345    
     24.0459    
     27.5051    
     30.1830    
     30.5183    
     30.0732    
     28.0651    
     24.4968    
     24.8321    
     28.2898    
     31.7493    
     31.3024    
     24.6114    
     24.9465    
     22.9401    
     28.7388    
     29.0739    
     28.6281    
     26.6220    
     30.0791    
     31.1950    
     26.0660    
     26.4010    
     28.2971    
     28.6321    
     23.5051    
     26.1809    
     25.7346    
     24.5099    
     24.8448    
     23.6194    
     27.8554    
     29.7502    
     29.3046    
     29.6395    
     28.4135    
     24.8483    
     31.4243    
     30.1991    
     29.7526    
     28.5278    
     30.4221    
     27.6369    
     29.5319    
     31.4262    
     25.5211    
     29.7557    
     33.2114    
     31.9854    
     33.0994    
     31.0942    
     22.8516    
     25.5250    
     27.4190    
     32.4324    
     28.8670    
     31.5413    
     29.5360    
     36.1102    
     31.7647    
     31.3202    
     31.6546    
     29.6496    
     32.3234    
     40.4581    
     38.4512    
     33.3266    
     31.3215    
     33.2145    
     35.8886    
     37.0030    
     36.5572    
     34.5517    
     38.7859    
     33.6615    
     35.5544    
     30.4329    
     29.2084    
     30.3210    
     32.2141    
     35.6667    
     36.7806    
     34.7756    
     39.0086    
     33.8847    
     38.8960    
     35.3334    
     40.3449    
     38.3395    
     33.9962    
     41.3470    
     36.2231    
     42.0150    
     42.3490    
     38.0055    
     36.7804    
     41.7911    
     39.7859    
     43.2378    
     42.0131    
     37.6696    
     36.4457    
     38.3373    
     37.1134    
     35.1106    
     31.5497    
     33.4412    
     36.8902    
     38.7824    
     32.1070    
     29.3262    
     24.9909    
     26.8810    
     29.5489    
     33.7755    
     29.4378    
     30.5498    
     29.3267    
     31.9956    
     27.6601    
     22.5481    
     23.6604    
     23.2152    
     26.6602    
     30.1052    
     28.8834    
     23.7726    
     28.7723    
     32.2184    
     31.7727    
     33.6627    
     25.4399    
     28.8827    
     26.1067    
     27.2169    
     30.6617    
     30.9951    
     30.5496    
     23.1094    
     25.7741    
     28.4402    
     30.3290    
     26.7740    
     25.5523    
     25.8856    
     28.5513    
     31.9952    
     28.4402    
     31.8829    
     23.6654    
     25.5538    
     26.6642    
     30.8835    
     26.5533    
     28.4409    
     30.3288    
     33.7712    
     32.5490    
     31.3280    
     31.6611    
     28.8848    
     31.5487    
     29.5508    
     32.2147    
     30.2167    
     31.3269    
     33.2136    
     32.7701    
     35.4343    
     32.6586    
     29.1068    
     27.8858    
     28.9947    
     32.4357    
