  11100 17  1 01NYLF5.SP PNYLF5 MS  .0000 A S1 010588 00.01   1         
  PROGRAM PE-CONVERT     VER 02.30                                      
  USER MS  DATE & TIME  1988 01 28 16.41 53.09    4.1000    295K A      
 AU1 ND 100     0     0 YLF             0.325000 - 0.830000 .00020       
 FILE NAME ON PE-3600 = 001 NYLF5.SP      ON PC = 001NYLF5.SP            
 NO_POINTS  =  2526.    pts   DATA_INTV = 0.000200 µm                    
 MIN_LAMBDA =  0.325000 µm     MIN_DATA =      0.                        
 MAX_LAMBDA =  0.830000 µm     MAX_DATA =  34350.0                       
 SCANSPEED  = .015      µm/min SLITWIDTH=  0.00010 µmITA =   0.          
       RESP =   1.0     sec        ISMS =   0.       DATE=88/01/05       
       INST = 509.                    ? =   0.                           
 POLARIZED ND:YLF SPECTRA. CRYSTALS FROM AIRTRON.                        
 PLASTIC POLARIZERS USED. ONLY 95% POLARIZED AT 810NM.                   
 MORE POL. AT SHORTER WAVELENGTHS TO 400. LESS POLARIZED                 
 LONGER THAN 810NM AND SHORTER THAN 400NM. STORM                         
 converted by Mark Storm.  header added by hand.                         
 ND:YLF,AIRTRON,.162 IN THICK,A-AXIS,PERP. TO AWIND                      
  EOH     (1X,F11.4)                                                     
  2526.           
   1609.5394      
   1568.8596      
   1821.2465      
   1638.4604      
   1523.0635      
   1884.6511      
   2622.5999      
   1960.8770      
   1804.0718      
   1962.7505      
   2203.3257      
   2222.3567      
   1964.8412      
   1998.0248      
   2103.1646      
   1921.1348      
   2486.8591      
   2626.4790      
   1831.8820      
   1362.3206      
   2110.2271      
   2117.6462      
   1737.4944      
   1887.1437      
   1736.5016      
   1647.4972      
   1592.6411      
   1379.4073      
   1206.8650      
   1546.7784      
   1616.0638      
   1784.8512      
    507.0819      
    191.0011      
    323.3940      
    809.0307      
   1178.0229      
    918.9501      
   1015.3770      
    870.0283      
    740.5157      
    417.3987      
    783.1835      
    582.3184      
    541.9677      
    377.9385      
    379.4849      
    822.4348      
    428.2433      
    329.1623      
    100.1469      
    451.7165      
    261.5786      
      0.0000      
      0.0000      
     73.3162      
    616.0958      
    512.2043      
    748.2555      
    332.5118      
     98.1737      
    513.0005      
    134.4053      
    145.2307      
    617.6852      
    542.1346      
    850.8412      
    818.2324      
   1054.4972      
    147.7361      
    131.9911      
    568.9807      
    585.4062      
    624.8622      
    235.2346      
    445.6937      
    723.1982      
    610.7324      
    212.0122      
    455.8812      
    507.2576      
    561.4459      
    608.9799      
    563.1766      
   1411.8199      
    754.8643      
    257.5368      
    320.5344      
   1127.3881      
    763.7921      
   1534.9988      
    505.2911      
    980.5976      
    825.9323      
    873.9774      
    759.4630      
    625.1530      
    843.0751      
    745.0383      
    895.4419      
   1186.3903      
   1102.1578      
   1066.4493      
   1658.6492      
   1847.5367      
   2456.3164      
   3068.6887      
   3308.1345      
   4174.8960      
   5018.3765      
   5508.4233      
   4773.4282      
   3402.9734      
   3791.8125      
   2980.4514      
   2710.5969      
   2296.7383      
   2715.3811      
   3040.9146      
   3112.9861      
   3086.1787      
   2667.4370      
   4150.7739      
   4625.0850      
   6574.7300      
   7420.9131      
   6452.6489      
   6456.2646      
   6606.5635      
   5387.9854      
   4394.4131      
   3395.7002      
   3630.6780      
   3536.0452      
   3003.3667      
   2862.1021      
   3112.9536      
   3548.9453      
   3337.8008      
   3465.4563      
   3586.1331      
   2632.6404      
   2280.9612      
   2952.7014      
   2936.4878      
   2734.9978      
   2887.7390      
   4509.8130      
   4913.5054      
   3759.5244      
   3863.0884      
   4590.0186      
   5373.7959      
   9305.7305      
  14340.1025      
   9523.5381      
   8803.0410      
   7550.1631      
   4941.0171      
   3645.9583      
   2492.1289      
   2435.3467      
   3118.8120      
   3094.9883      
   1942.0662      
   1396.6838      
   1734.6074      
   1662.6044      
   1079.1912      
   1166.4203      
    977.6426      
    761.7052      
     85.0615      
    468.3192      
    402.6455      
    149.1978      
    513.2361      
    636.3565      
    342.9792      
    828.4311      
    804.0252      
    143.5119      
    479.1704      
     45.7890      
    281.1031      
      0.0000      
      0.0000      
     86.1147      
    248.3770      
    343.3716      
      0.0000      
    296.8853      
    437.7045      
      0.0000      
      0.0000      
    156.3198      
      0.0000      
     88.9890      
    152.7980      
    538.4050      
      6.1538      
      0.0000      
      0.0000      
      0.0000      
    401.9534      
      0.0000      
     90.3603      
    142.2170      
    306.1658      
    326.3655      
    239.7500      
      0.0000      
    226.7275      
    333.6530      
    103.4823      
     45.3998      
     74.6476      
    456.2761      
    760.7910      
     40.7049      
    856.5577      
    455.5224      
    399.2761      
      0.0000      
      4.4634      
    248.6329      
    373.0537      
      0.0000      
    608.9223      
     89.7933      
    495.8514      
    762.6927      
    590.5717      
    118.1971      
    271.2736      
      0.0000      
      0.0000      
      0.0000      
    965.9948      
    332.0961      
      0.0000      
    284.2843      
    437.0581      
     66.6545      
    927.0743      
    153.0729      
      0.0000      
    372.0427      
      0.0000      
    560.5718      
    462.3735      
     75.7161      
    650.2440      
    575.9842      
     24.5826      
    585.7185      
    480.6920      
    234.5287      
      0.0000      
      0.0000      
      0.0000      
      0.0000      
   1170.5725      
    859.9324      
    318.2068      
      0.0000      
   1410.3226      
      0.0000      
    905.7475      
      0.0000      
    863.6179      
    293.7798      
     23.0840      
     50.9610      
    127.8778      
      0.0000      
      0.0000      
      0.0000      
    104.5575      
    349.6479      
      0.0000      
     95.6876      
    155.4772      
    524.7394      
    303.5263      
    600.5890      
      0.0000      
    358.7350      
    560.4617      
    479.7538      
     61.1467      
    156.6606      
    211.2746      
    507.1918      
    395.8132      
    260.9350      
      0.0000      
    150.8041      
      0.0000      
      0.0000      
    290.9245      
    285.7157      
    450.5215      
    255.3012      
    453.4647      
     71.0169      
    142.6708      
    133.5143      
      0.0000      
    321.4521      
    359.0217      
    137.9981      
     86.4578      
    344.6840      
    358.1887      
    147.7879      
    142.6061      
    367.9321      
     40.9352      
     18.6128      
     99.3714      
    161.8061      
     62.5747      
    344.5937      
    590.6993      
    421.1921      
      0.0000      
    139.9907      
    255.7689      
    392.1863      
    361.5084      
    246.8088      
      0.0000      
    259.0439      
    171.3698      
    239.3051      
    203.5010      
      0.0000      
      0.0000      
    274.4334      
    377.4478      
    376.2287      
     67.6574      
      0.0000      
     97.0023      
    124.9379      
     93.2709      
    187.5412      
    367.6935      
     55.2733      
    146.7445      
    257.2043      
    116.4919      
     57.0693      
    236.2480      
      0.0000      
    101.0709      
      0.0000      
      0.0000      
     22.1161      
     61.8533      
      0.0000      
      0.0000      
     62.2018      
      0.0000      
      0.0000      
      0.0000      
    287.0697      
    186.0125      
      0.0000      
     94.7519      
     98.8378      
     98.9522      
     71.2833      
      0.0000      
     26.5987      
     31.9912      
     66.4507      
      0.0000      
      0.0000      
     33.7658      
     31.2380      
      0.0000      
      0.0000      
      0.0000      
      6.6197      
     42.3610      
    153.6500      
    132.5453      
      0.0000      
    165.9247      
    340.5240      
     99.8758      
     48.4209      
      0.0000      
      0.0000      
      0.0000      
      0.0000      
    311.9065      
     23.9971      
      0.0000      
      0.0000      
      0.0000      
      0.0000      
     81.3468      
     93.3599      
    246.1126      
    204.9774      
    179.8451      
      0.0000      
      0.0000      
     83.4241      
      0.0000      
      0.0000      
     12.4299      
     41.5665      
     94.5425      
      0.0000      
      0.0000      
      0.0000      
      0.0000      
      0.0000      
      0.0000      
      0.0000      
    145.7234      
      0.0000      
      0.0000      
      0.0000      
     37.6589      
    182.0750      
    316.6624      
    194.2361      
      0.0000      
      0.0000      
    144.1159      
    303.8329      
      0.0000      
     29.3572      
     16.2679      
    106.2166      
      0.0000      
      0.0000      
      0.0000      
      0.0000      
      0.0000      
      0.0000      
      0.0000      
      0.0000      
      0.0000      
     74.1670      
     28.0460      
     83.6243      
      0.0000      
      0.0000      
     41.6475      
      0.0000      
     41.8482      
      0.0000      
      0.0000      
    105.5952      
     91.1395      
      0.0000      
      0.0000      
      8.2450      
      0.0000      
    294.8617      
    223.0411      
      0.0000      
    183.3738      
    139.6957      
     23.4415      
    182.3389      
      0.0000      
      0.0000      
      0.0000      
      0.0000      
    121.8324      
      0.0000      
      0.0000      
     95.6515      
      0.0000      
      0.0000      
      0.0000      
    117.2119      
    207.5105      
     92.2624      
      0.0000      
      0.0000      
      0.0000      
      0.0000      
      0.0000      
      0.0000      
    151.1966      
     65.2634      
      0.0000      
     81.3115      
      0.0000      
     48.4710      
    142.4847      
    175.7355      
    295.5650      
    197.1671      
    262.4326      
     71.4891      
     83.4805      
    124.5924      
      0.0000      
    274.8902      
    264.3251      
    240.4540      
    135.6535      
    324.6120      
   1576.6742      
   3093.1301      
    766.8156      
      0.0000      
    120.3110      
      0.0000      
      0.0000      
     88.8300      
    249.4491      
    134.0122      
    208.4027      
     50.8750      
    363.2151      
    501.4340      
      0.0000      
      0.0000      
     35.4911      
      0.0000      
     33.0303      
      6.7513      
      0.0000      
      0.0000      
    110.0267      
    124.6769      
     89.0379      
     75.9104      
      0.0000      
      0.0000      
      0.0000      
      0.0000      
      0.0000      
     60.5886      
      0.0000      
      0.0000      
      0.0000      
      0.0000      
      0.0000      
      0.0000      
      0.0000      
      0.0000      
      0.0000      
      0.0000      
      0.0000      
      0.0000      
      0.0000      
      0.0000      
      0.0000      
      0.0000      
      0.0000      
      0.0000      
      0.0000      
      0.0000      
      0.0000      
      0.0000      
      0.0000      
      0.0000      
      0.0000      
      0.0000      
     16.7406      
     31.3304      
      0.0000      
      0.0000      
    113.4962      
      0.0000      
      0.0000      
      0.0000      
      0.0000      
      6.9552      
      0.0000      
      0.0000      
      0.0000      
     21.7879      
     74.6615      
      0.0000      
      0.0000      
      0.0000      
      0.0000      
      0.0000      
      0.0000      
      0.0000      
      0.0000      
      0.0000      
      0.0000      
      0.0000      
      0.0000      
      0.0000      
      0.0000      
    103.6583      
     28.4575      
    128.9671      
      0.0000      
      0.0000      
      0.0000      
    125.3180      
     52.6930      
      0.0000      
      0.0000      
      0.0000      
      0.0000      
      0.0000      
    131.1755      
     21.5936      
    144.5812      
    167.1952      
      0.0000      
      8.7355      
    164.7809      
     32.6204      
      0.0000      
     10.3682      
    112.1156      
    255.5107      
      0.0000      
     54.2037      
      0.0000      
    103.2467      
    176.1781      
    136.4914      
    256.0589      
    237.5112      
    149.9733      
     98.4251      
     20.6113      
    220.5379      
    186.0875      
    131.8159      
     73.7011      
    178.3565      
    347.5022      
    296.8683      
    390.4416      
    585.3336      
    580.0140      
    728.8949      
    639.5796      
    788.8259      
    965.0039      
    973.3015      
   1232.4110      
   1347.7295      
   1445.4216      
   1304.7744      
   1163.5527      
    980.6100      
    775.9062      
    800.4665      
    880.9620      
    893.3268      
    740.8862      
    739.6049      
    774.9976      
    737.0389      
    693.7184      
    684.3106      
    786.1729      
    911.6888      
    991.1788      
    823.1407      
   1033.8799      
   1233.9808      
   1116.5994      
   1098.7574      
    982.0226      
    988.9511      
    991.7676      
    991.8408      
    587.9502      
    671.8007      
    770.8862      
    581.4255      
    492.6542      
    545.1852      
    280.0862      
    437.8438      
    533.2875      
    400.4778      
    448.7864      
    383.2285      
    552.4254      
    360.6425      
    497.4059      
    540.5206      
    612.0493      
    572.9958      
    519.2039      
    485.6722      
    402.6059      
    262.5209      
    242.6368      
    192.2235      
     12.4674      
     62.6509      
    147.3547      
    165.9778      
    277.6616      
    353.7601      
    363.1852      
    295.1912      
    238.0212      
    330.0061      
    327.4064      
    376.9036      
    512.4027      
    314.2751      
    337.0294      
    497.8254      
    708.4355      
    800.8517      
    949.6800      
    905.9801      
    608.6141      
    340.1837      
    147.4202      
    447.3650      
    347.0641      
    533.4777      
    281.8509      
    353.9488      
    312.6397      
    354.0851      
    255.4983      
    445.2302      
    323.5829      
    259.6942      
    294.3838      
    323.7859      
    357.2317      
    598.9748      
    502.0843      
    565.3990      
    487.4387      
    433.8380      
    475.4885      
    742.8256      
   1032.3448      
   1896.3451      
   3579.6716      
   2903.1074      
   2341.7117      
   1783.0356      
   1135.9735      
    502.9515      
    632.3795      
    544.7810      
    578.5275      
    585.3344      
    651.5659      
    996.1483      
   1036.0184      
   1341.5618      
   2177.8496      
   3073.6758      
   3538.0725      
   2523.0664      
   1521.9834      
   1044.7183      
    648.1621      
    493.2495      
    602.3696      
    614.5823      
    713.4030      
    527.1146      
    350.2523      
    250.3601      
    354.3884      
    237.1927      
    233.2686      
      0.0000      
    140.5356      
    104.8784      
    196.3380      
     29.7604      
      0.0000      
    221.7557      
     85.3712      
      0.0000      
      0.0000      
      0.0000      
      0.0000      
     32.9037      
      0.0000      
      0.0000      
      6.7435      
    125.6022      
    169.3700      
      0.0000      
      0.0000      
    128.4993      
      0.0000      
      0.0000      
      0.0000      
     69.2722      
     99.7143      
      0.0000      
      0.0000      
    106.5107      
    199.2956      
    259.1508      
      0.0000      
      0.0000      
    162.4101      
      0.0000      
      0.0000      
      0.0000      
      0.0000      
      0.0000      
      0.0000      
      0.0000      
      0.0000      
      0.0000      
      0.0000      
      0.0000      
      0.0000      
    175.1294      
     93.1306      
      6.1390      
      0.0000      
     23.3826      
      0.0000      
      0.0000      
      2.4907      
     22.3030      
      1.2937      
      7.9338      
     11.9444      
      0.0000      
     13.3822      
     95.2300      
     42.4915      
     20.1454      
     10.9850      
     25.5328      
     33.4985      
    197.5443      
     16.4897      
    234.8441      
    105.0126      
    226.9893      
     83.9884      
    274.9800      
    164.8051      
    204.6499      
    195.4174      
    241.9587      
    311.2381      
    422.1938      
    395.4836      
    445.0868      
    572.8184      
    617.3837      
    614.7413      
    716.2410      
    700.0383      
    751.6212      
    855.0587      
    921.9985      
    904.2917      
    897.5227      
   1192.9397      
   1166.7496      
   1193.0538      
   1121.3459      
   1216.6740      
   1409.7932      
   1302.7137      
   1375.0696      
   1262.5985      
   1254.3405      
   1314.0479      
   1347.4629      
   1303.0529      
   1222.7184      
   1196.4978      
   1138.5676      
   1175.8829      
   1336.6753      
   1207.7828      
   1153.9644      
   1252.1866      
   1271.6459      
   1266.1569      
   1313.3885      
   1295.3939      
   1405.3391      
   1369.1731      
   1539.6536      
   1441.7788      
   1352.6405      
   1236.1223      
   1394.5199      
   1425.2511      
   1504.9630      
   1576.5146      
   1907.3177      
   1914.4901      
   2244.1672      
   2452.8833      
   3042.1023      
   3271.3301      
   3638.3228      
   3696.4990      
   3118.4736      
   2547.9875      
   2324.0872      
   1888.0015      
   1716.6055      
   1750.5724      
   1619.4843      
   1747.8502      
   1990.8650      
   2305.6553      
   2687.6563      
   3099.6313      
   3636.0222      
   3948.1550      
   4338.1108      
   4556.0913      
   4554.5562      
   4306.8486      
