  11100 20  1 01NYVO3.SP PYVO   MS  .0000 # S1 031188 00.01   1         
  PROGRAM PE-CONVERT VERSION 02.30                                      
  USER MS  DATE & TIME  1988 03 18 12.47 46.17    1.6000    295K C       
 AU1 ND 100     0     0 YVO4            0.325000 - 0.830000 .00020       
 FILE NAME ON PE-3600 = 001 NYVO3.SP      ON PC = 001NYVO3.SP            
 NO_POINTS  =  2526.    pts   DATA_INTV = 0.000200 µm                    
 MIN_LAMBDA =  0.325000 µm     MIN_DATA =   0.                           
 MAX_LAMBDA =  0.830000 µm     MAX_DATA =   .24619E6                     
 SCANSPEED  = .015      µm/min SLITWIDTH=  0.00020 µmITA =   0.          
       RESP =   0.5     sec        ISMS =   0.       DATE=88/03/11       
       INST = 509.                    ? =   0.                           
 THIS IS DATA TAKEN FROM A ND DOPED ORTHO-VANIDATE CRYSTAL               
 PROVIDED BY MILT BIRNBAUM. THE XTAL IS 1.60MM THICK AND                 
 HAS A BLUISH-VIOLETISH COLOR THAT IS NOT UNIFORM. IN                    
 ADDITION THE SURFACE POLISH WAS VERY POOR. THE SHORT WAVELENGTH         
 DATA I BELIEVE SHOW A SLANTED BASELINE DUE TO SCATTERING LOSSES         
 INTERNAL AND EXTERNAL.PLASTIC POLARIZERS WERE USED INSIDE P.E.          
 longside is identified as 'C' axis.(ã polar or extraordinary ray)       
 converted to AU by Mark Storm.  header added by hand                    
 ND:YVO4,1%ND,1.60MMTHICK,LONGSIDE,BIRNBAUM,SAME AS1                     
  EOH     (1X,F11.4)                                                     
  2526.           
 228488.9844      
 224479.0938      
 223611.9531      
 221901.9844      
 238771.8594      
 223822.3750      
 233878.4375      
 229523.3438      
 229152.8281      
 234119.5781      
 241107.1250      
 225668.4063      
 231134.6094      
 227891.2500      
 222200.8438      
 228854.1875      
 222736.8438      
 220224.4219      
 231007.4219      
 233823.7813      
 235076.9219      
 229112.3750      
 231445.9375      
 232450.8906      
 231075.3906      
 233483.0781      
 225659.5938      
 218549.2500      
 231120.1094      
 236231.9219      
 223759.0938      
 229414.4375      
 236052.8438      
 225200.6719      
 240009.6719      
 227212.5938      
 232594.9219      
 223661.9844      
 226696.1875      
 229121.8750      
 228567.0625      
 233050.9688      
 229534.1094      
 228411.8750      
 233894.7969      
 226771.3750      
 237705.1250      
 231916.8750      
 227906.1563      
 234770.2031      
 228112.9688      
 234584.6094      
 230988.3125      
 229650.4688      
 227048.5625      
 233603.3906      
 232807.2969      
 236958.2188      
 224582.4688      
 233644.6875      
 226928.0313      
 231865.0625      
 238089.0000      
 234708.5156      
 230145.8750      
 236189.6406      
 243350.3906      
 229603.6875      
 235172.9531      
 226837.2656      
 229066.4531      
 230987.8906      
 238189.6875      
 227792.2500      
 234818.8594      
 230447.9688      
 230074.3906      
 231632.2969      
 228397.0938      
 233038.6406      
 233450.3281      
 228986.9219      
 231096.0625      
 231690.7813      
 232489.1094      
 230545.4688      
 232508.3594      
 233922.5156      
 232726.2656      
 226310.2188      
 231954.1875      
 227233.7344      
 226338.7188      
 226348.1719      
 236262.0000      
 233998.4375      
 226736.6250      
 235662.0156      
 230861.2813      
 236519.6094      
 231656.3125      
 226423.0000      
 219793.3594      
 225196.7656      
 229580.9375      
 229213.6250      
 228106.6719      
 238741.3438      
 233512.8906      
 227766.3906      
 228884.9688      
 246193.7813      
 229653.8125      
 229098.9063      
 230431.6875      
 234589.0938      
 230449.6094      
 224797.7344      
 222241.2969      
 217882.2969      
 220442.5313      
 217743.9375      
 220623.1563      
 203473.1250      
 199169.8438      
 201177.8438      
 194506.0156      
 190259.9688      
 182718.0313      
 177526.0156      
 170574.4531      
 165591.6875      
 162246.0000      
 148462.0000      
 146300.3906      
 136504.6875      
 134716.0469      
 128644.1953      
 119943.5781      
 115466.8047      
 110867.2969      
 106035.4766      
 103245.2969      
  96985.4453      
  93620.5469      
  90125.2500      
  87315.0469      
  83148.9375      
  80062.3750      
  75810.0859      
  76091.3828      
  73098.5391      
  73398.9297      
  74967.7734      
  76075.9688      
  79251.0469      
  85555.3828      
  92901.5703      
 103377.3516      
 104819.9766      
  98859.5859      
  85895.9688      
  74898.7188      
  67847.3438      
  64563.6680      
  60448.7070      
  61694.5898      
  60840.9844      
  62351.6289      
  59623.3555      
  58968.5586      
  62246.5508      
  66498.5078      
  72725.3516      
  76768.8594      
  72877.9922      
  65127.6602      
  57183.0078      
  51658.7852      
  45690.8984      
  40253.8281      
  39453.4492      
  40441.1563      
  43408.5625      
  52987.3203      
  68329.8672      
  87479.4688      
  76432.5313      
  48172.0078      
  36450.6094      
  32388.9473      
  30538.1543      
  34393.1602      
  40497.3750      
  43283.0938      
  46736.0820      
  46066.7734      
  37236.7383      
  25574.6660      
  20793.6602      
  14864.5742      
  14262.3535      
  13348.7480      
  13479.2695      
  12867.2520      
  10658.4961      
   9973.8096      
   9143.1768      
   8383.0791      
   8939.0264      
   9230.6406      
   9254.2910      
  12438.7559      
  14029.1807      
  13658.8047      
  10579.3213      
   8305.4785      
   7332.6245      
   5044.5459      
   6329.6680      
   5227.9458      
   4968.5098      
   3710.0159      
   4957.0146      
   3488.9636      
   2736.7454      
   3848.3604      
   4369.4810      
   3892.3970      
   3190.1743      
   4456.1123      
   1426.8993      
   2770.4827      
   3731.3440      
   2991.6587      
   2697.4373      
   2906.4648      
   4135.3320      
   3630.4561      
   3877.5098      
   3101.8074      
   2223.3503      
   1835.7994      
   2943.9880      
   2995.1689      
   1914.2042      
   2208.1143      
   3054.7793      
   3488.1956      
   2767.1348      
   2347.0410      
   2559.2969      
   3058.2600      
   3153.8899      
   2407.6489      
   2150.6582      
   1614.1056      
   3731.9937      
   1328.5264      
   1739.9744      
   3298.7039      
   1844.9078      
    671.0959      
   4307.5649      
   4137.9551      
   1272.9666      
   1553.4220      
   1762.5342      
   1580.6713      
   2046.5880      
   1396.1085      
   2512.4524      
   2347.8599      
   2554.4595      
   2889.4392      
   2011.7554      
   2798.8101      
   2805.0779      
   2546.7332      
   2075.6096      
   2106.1045      
   1715.5226      
   2337.3557      
   2124.7161      
   2281.5632      
   2219.6414      
   2425.4094      
   2382.7976      
   1869.7336      
   2678.2900      
   2104.6277      
   1834.9086      
   2588.9722      
   1553.2327      
   2332.9268      
   2685.3699      
   2126.4392      
   2736.5684      
   2327.8357      
   2436.0417      
   2539.5117      
   2117.6284      
   2342.0137      
   2503.7429      
   3131.8191      
   2369.5332      
   2278.2578      
   2352.1687      
   2144.5437      
   2363.9272      
   2491.4241      
   2731.4885      
   2337.7441      
   2159.2603      
   2675.6829      
   2035.4198      
   2070.2131      
   1887.7217      
   2004.4626      
   2029.5302      
   2369.4661      
   1766.2853      
   1757.5801      
   2581.1858      
   1687.3124      
   2300.9768      
   2248.4932      
   1512.5719      
   2245.2822      
   2154.1411      
   2460.3003      
   1837.4415      
   1684.5170      
   2627.9431      
   2129.0308      
   1975.3698      
   2116.0193      
   1472.9624      
   1958.3193      
   2045.7859      
   1853.8844      
   2066.4648      
   1821.6438      
   1664.0013      
   1967.2826      
   1977.5684      
   1930.0811      
   1743.3871      
   1676.9224      
   2492.4238      
   2192.8279      
   1774.6715      
   2314.8174      
   1790.2513      
   1891.6464      
   1599.8274      
   1815.9431      
   2056.8306      
   2337.2988      
   1325.4006      
   2227.1133      
   1991.4757      
   2040.0710      
   1896.3307      
   1661.9928      
   2210.0938      
   1514.8688      
   1553.5168      
   1654.2919      
   1444.7498      
   1564.4098      
   1569.6123      
   2624.1191      
   2126.5115      
   1594.7089      
   1542.6129      
   1471.4987      
   1433.7817      
   1605.7529      
   1325.1438      
   1549.2023      
   2133.9229      
   1803.0426      
   1483.4794      
   1693.6528      
   1856.5750      
   1223.0946      
   1761.3943      
   1275.8632      
   2049.4084      
   1809.9633      
   1681.1600      
   1719.5800      
   1729.3531      
   1968.8311      
   2556.6855      
   1935.6305      
   2060.4822      
   1188.2874      
   1635.0199      
   1606.5825      
   1878.8977      
   1487.8888      
   1826.5259      
   1440.6423      
   1512.0663      
   2296.9688      
   1946.4952      
   2210.4421      
   1970.5591      
   2008.9270      
   1827.1467      
   1793.7592      
   1536.5079      
    855.6600      
   1937.1958      
   1569.8958      
   1394.2004      
   1200.0950      
   2128.7461      
   2123.9011      
   1389.4946      
   1579.3767      
   1565.0773      
   2056.5071      
   1541.2324      
   1545.9259      
   1626.6694      
   1522.0358      
   1674.0719      
   1850.3037      
   1011.1811      
   1950.3372      
   1649.8370      
   1265.6766      
   1549.7891      
   1497.4518      
   1587.4901      
   1672.8799      
   1653.6891      
   1677.2875      
   1397.1570      
   1297.6510      
   1217.1893      
   1202.8518      
   1543.2928      
   1752.1370      
   1254.1882      
   1808.7778      
   1390.8015      
   1632.2885      
   1893.7378      
   1745.8136      
   1536.5950      
   1210.0935      
   1285.3146      
   1365.3408      
   1473.8502      
   1416.7622      
   1383.3553      
   1293.3016      
   2043.1417      
   1952.0840      
   1561.8831      
   1419.5215      
   1475.9285      
   1869.5288      
   1267.3632      
   1219.8611      
   1663.9301      
   1431.4689      
   1459.4338      
   1274.8856      
   1671.7336      
   1562.2847      
   1462.4854      
    981.7083      
   1084.5809      
   1361.9667      
   1479.5967      
   1097.3805      
   1464.4692      
   1586.9751      
   1288.9141      
   1680.7233      
   1557.0616      
   1864.8352      
   1688.6239      
   1319.4113      
   1720.7285      
   1843.5917      
   1942.8755      
   2756.5398      
   4382.1421      
   3419.1160      
   2557.2390      
   1437.6265      
   1706.5900      
   2110.0830      
   1653.2583      
   1794.8219      
   2055.6819      
   2121.7415      
   2590.1655      
   1839.6744      
   1934.0085      
   1677.1589      
   1766.4968      
   2260.7471      
   1519.1285      
   1740.7283      
   1782.6766      
   1767.7415      
   1398.4855      
   1723.6636      
   1190.1753      
   1599.2252      
   1428.6353      
   1277.3149      
   1436.6005      
   1799.7125      
   1406.8531      
   1764.9976      
   1367.6821      
   1858.2024      
   1361.4537      
   1999.0002      
   1822.5894      
   1618.3469      
   1664.7817      
   1522.3424      
   1790.8502      
   1421.7811      
   1689.8163      
   1307.2834      
   1915.3885      
   1762.9115      
   1951.5789      
   1633.5554      
   1604.3611      
   1712.0995      
   1763.2126      
   1752.8530      
   1638.5537      
   1623.4915      
   1806.8649      
   1952.7977      
   1876.0142      
   2098.0869      
   1303.6300      
   2138.9207      
   1518.0187      
   1937.5313      
   2102.6672      
   2253.9197      
   2429.3923      
   3269.8689      
   3647.4868      
   5039.9399      
   6965.1802      
  10790.9941      
  16969.2324      
  19087.2090      
  13416.2725      
   7784.7363      
   4461.2490      
   3277.8557      
   2622.0776      
   2444.0525      
   2123.9019      
   1923.6525      
   1875.2402      
   2111.0933      
   1726.6115      
   1791.6061      
   1653.6946      
   1596.0848      
   1646.7850      
   1344.9009      
   1541.0186      
   1323.9651      
   1379.1222      
   1410.8467      
   1447.2677      
   1554.2028      
   1859.4458      
   2361.1284      
   2713.3420      
   2230.2466      
   1694.3357      
   1688.4434      
   1087.1887      
   1230.8340      
   1304.5345      
    971.8954      
    766.2244      
    653.8109      
    889.3340      
    841.7015      
   1157.2013      
    663.1048      
   1220.1924      
   1069.6366      
    682.7600      
    983.3943      
    838.0673      
   1190.7384      
    993.7165      
   1085.6414      
    898.2500      
   1251.1592      
   1226.5420      
   1403.0093      
   1004.8954      
   1227.4052      
   1072.2153      
    987.1527      
    651.8837      
   1142.9467      
   1076.4070      
    958.7930      
    938.9088      
   1212.3672      
   1010.6985      
    767.9898      
    929.0597      
    663.5531      
    982.1877      
   1045.9624      
   1151.7295      
   1029.3340      
   1004.7379      
    915.1170      
    899.8470      
   1168.2271      
   1106.2952      
   1049.0836      
    866.5767      
   1130.0864      
   1124.0402      
   1020.2905      
    912.0942      
    892.1423      
   1230.2317      
   1070.4669      
    762.8605      
   1160.7078      
   1215.1774      
    948.6357      
   1324.2330      
   1364.8009      
   1130.2025      
   1147.3639      
   1215.7560      
   1195.6555      
   1315.3905      
   1043.8341      
    930.9622      
   1404.2888      
   1332.7327      
   1415.2742      
   1278.3945      
    835.5452      
   1233.4135      
   1311.1390      
   1262.9827      
   1191.5869      
   1390.5157      
   1379.6237      
   1424.7720      
   1535.4172      
   1697.8254      
   1846.5247      
   1953.1567      
   1876.2255      
   1771.2043      
   2132.2043      
   1946.6436      
   1992.1072      
   2325.8833      
   2305.2578      
   2355.6846      
   2796.2300      
   3009.6008      
   2873.9380      
   3404.7283      
   3576.6187      
   3705.3777      
   4028.7205      
   4060.9314      
   3995.8293      
   3659.3743      
   3392.1284      
   3265.2454      
   3153.0117      
   2592.5498      
   2833.6658      
   2755.5769      
   2687.1094      
   2942.8718      
   2874.1934      
   3068.4011      
   3479.7141      
   3709.6177      
   3954.9077      
   4352.4526      
   4223.5767      
   4333.8916      
   4704.2847      
   4904.0737      
   5302.5977      
   5454.5142      
   5581.8608      
   5699.4717      
   5294.4004      
   5431.3379      
   5255.5757      
   5159.4336      
   4640.0474      
   4839.4980      
   4817.7715      
   4914.1938      
   5139.1938      
   4914.9976      
   5387.6924      
   5350.8457      
   5721.9023      
   6115.2178      
   6566.5928      
   6827.9165      
   7120.9150      
   7955.8608      
   8859.7061      
   9707.5586      
   8991.3691      
   7714.2778      
   6226.0679      
   5166.8647      
   5016.5913      
   4332.7256      
   4281.8862      
   4309.0449      
   4575.6680      
   4256.1348      
   4215.0845      
   4706.5200      
   4748.5459      
   4599.3154      
   4940.8789      
   5447.8682      
   6154.4131      
   7159.0459      
   9861.4746      
  14083.1299      
  21525.7012      
  30632.3965      
  30553.5039      
  22693.4160      
  15049.8350      
  10426.1689      
   7377.7021      
   5341.7769      
   4133.0361      
   3714.5681      
   3385.2327      
   2729.1155      
   2860.1567      
   2653.8071      
   2965.5208      
   3331.4873      
   3329.3623      
   3576.9856      
   2823.8599      
   3045.6121      
   2554.0073      
   2665.6301      
   2801.1938      
   2956.0920      
   3725.6072      
   4222.0869      
   4693.1001      
   5727.7534      
   6396.0986      
   8585.2783      
  10929.4316      
  10829.3271      
   9824.6250      
   9345.4209      
   8718.2949      
   7577.4824      
   5641.7817      
   4306.8901      
   4003.7336      
   3562.5042      
   3416.2415      
   3466.7908      
   3220.2979      
   3717.1672      
   3163.3167      
   3842.8533      
   4598.1694      
   4978.0674      
   4344.8560      
   3511.2502      
   2911.7644      
   2022.0001      
   1954.2634      
   1737.1057      
   1307.1948      
   1569.7457      
   1511.8099      
   1263.8019      
   1016.7957      
   1014.6965      
   1146.4465      
   1209.0386      
   1285.5830      
   1524.6820      
   1457.4919      
   1418.2086      
    967.6248      
   1136.1443      
   1300.4877      
   1182.6801      
    931.4636      
   1173.7522      
   1028.5166      
   1017.1494      
    913.6896      
   1072.7688      
   1287.7616      
   1151.5050      
   1292.6453      
   1359.9108      
   1566.5215      
   1355.5011      
   1149.8214      
   1032.3145      
   1085.4412      
    949.6531      
    892.2788      
    811.9888      
    768.5026      
    867.3177      
    654.1304      
    656.5258      
    805.6232      
    734.6161      
    759.9263      
    895.4484      
    659.2986      
    886.4136      
    719.0091      
    964.7170      
    842.9980      
   1006.2581      
    916.6249      
    781.2430      
    870.7960      
    863.9587      
   1105.5400      
   1135.5442      
   1041.1107      
   1195.5793      
    921.5901      
   1034.2988      
   1064.2499      
    997.5288      
   1096.5345      
   1002.1639      
   1105.7660      
    772.6136      
    949.3176      
   1131.1161      
   1142.6365      
   1094.2480      
   1004.4888      
   1149.5166      
   1073.4893      
   1167.9208      
   1142.5435      
   1223.2163      
   1359.4629      
   1126.3229      
   1368.6221      
   1357.0172      
   1437.9297      
   1472.6095      
   1470.2268      
   1681.2550      
   1618.4778      
   1839.2937      
   1967.4504      
   1759.9862      
   1990.5996      
   1866.8934      
   2360.3425      
   2259.3315      
   2322.5422      
   2385.8093      
   2850.1523      
   2771.9612      
   2755.2712      
   2781.1052      
   3272.1406      
   3469.9846      
   4082.1372      
   4002.3398      
   4265.3511      
   4743.6890      
   5171.6265      
   5222.9375      
   5565.1270      
   5750.3960      
   5841.8335      
   6417.3369      
   6902.1763      
   7783.6738      
   8150.3301      
   8591.6689      
