  11100 17  1   EDFLLF09 PLLF01 EDF  .000 # S1 090794 00.01   1        
  PROGRAM LAMBDA-9   VERSION 02.31                                     
  USER EDF DATE & TIME  1994 10 12 18.06 43.97    9.3470    295K S     
 AU1 TM 500HO  50     0 LILUF4           .725000 -  .850000 .00005     
 FILE NAME                                ON PC = EDFLLF09.DX          
 NO_POINTS  =  2501.    pts   DATA_INTV =  .000050 æm                  
 MIN_LAMBDA =   .725000 æm     MIN_DATA =    .02100                    
 MAX_LAMBDA =   .850000 æm     MAX_DATA =   1.35970                    
 SCANSPEED  = .03000000 æm/min SLITWIDTH=   .00040 æm                  
  RESP TIME =   .2      sec SENSITIVITY = 5          DATE=94/09/07     
 Ho(.5)Tm(5)LiLuF4,slit=.4nm,sc speed=30,resp=.2s,int=.05,pol=s (2     
 8)                                                                    
 Sample from Lightning Optical Corporation, purchase order L53365D     
 Height=.298 inches, Width=.233 inches, Length= .368 inches,           
 C-axis is along the .298 height direction, Sample was taken with      
 c-axis pointing up in the sample compartment chamber of the Perki     
 Elmer Lambda-9 spectrometer.                                          
  This spectra is part of Database LASERS
 Database LASERS was created by Pat Cross working 
 at NASA Langley Research Center, Internal Operations Group,
 Aerospace Electronics Systems Division, Remote Sensing 
 Technology Branch. phone:(757)864-1633   fax:(757)864-7894 
     e-mail p.l.cross@larc.nasa.gov 
     homepage http://aesd.larc.nasa.gov/laser/dbmain.htm
  EOH     (1X,F11.4)                                                   
  2501.         
     23.9509    
     29.3710    
     24.4444    
     18.1571    
     24.4451    
     25.9236    
     32.8217    
     27.8952    
     25.4322    
     27.8959    
     26.4182    
     27.8967    
     18.1288    
     18.1256    
     18.1225    
     18.1194    
     27.4060    
     28.8843    
     21.0018    
     18.1068    
     18.1037    
     19.0322    
     20.5106    
     33.8136    
     31.8432    
     34.7998    
     33.8148    
     25.4395    
     28.3960    
     30.8598    
     21.4991    
     30.3679    
     20.5145    
     22.4856    
     19.0372    
     30.8621    
     18.0534    
     18.0502    
     18.0471    
     18.0440    
     18.0408    
     18.0377    
     18.0345    
     21.5041    
     22.9825    
     18.0251    
     18.0220    
     18.0188    
     18.0157    
     18.0125    
     18.0094    
     20.5218    
     18.5514    
     20.5225    
     26.9278    
     22.0013    
     22.9870    
     22.9874    
     17.9843    
     17.9811    
     17.9780    
     24.9598    
     25.4529    
     29.3948    
     22.0048    
     17.9623    
     17.9591    
     22.0059    
     17.9529    
     17.9497    
     21.0217    
     23.4855    
     24.4712    
     27.4279    
     28.9062    
     27.4286    
     29.3998    
     29.4002    
     27.4298    
     17.9183    
     17.9152    
     17.9120    
     17.9089    
     17.9057    
     19.5489    
     26.9396    
     17.8963    
     17.8932    
     17.8900    
     17.8869    
     17.8837    
     17.8806    
     17.8775    
     24.4792    
     31.8700    
     22.0166    
     17.8649    
     17.8618    
     17.8586    
     23.4961    
     18.5697    
     17.8492    
     17.8460    
     18.0782    
     23.0053    
     24.9765    
     17.8335    
     17.8303    
     17.8272    
     17.8241    
     19.0662    
     20.0519    
     25.9645    
     36.3114    
     34.8338    
     18.0827    
     37.2980    
     29.4153    
     19.5618    
     17.7926    
     17.7895    
     17.7864    
     18.0854    
     17.7801    
     21.0422    
     19.5645    
     22.5211    
     25.4776    
     17.7644    
     25.4784    
     20.5518    
     19.0741    
     17.7518    
     17.7487    
     28.4364    
     23.0171    
     23.5101    
     17.7361    
     17.7330    
     17.7298    
     17.7267    
     17.7235    
     17.7204    
     17.7173    
     17.7141    
     17.7110    
     17.7078    
     17.7047    
     17.7015    
     17.6984    
     17.6953    
     17.6921    
     17.6890    
     17.6858    
     17.6827    
     17.6796    
     24.0104    
     18.0986    
     17.6701    
     17.6670    
     18.0997    
     19.0854    
     17.6576    
     18.5935    
     26.4768    
     25.9845    
     18.5946    
     20.5657    
     18.1027    
     19.5810    
     24.5083    
     28.9429    
     25.4946    
     25.4949    
     20.0756    
     17.6167    
     17.6136    
     17.6105    
     19.0918    
     17.6042    
     17.6010    
     23.0343    
     22.5421    
     18.6010    
     17.5885    
     17.5853    
     17.5822    
     17.5791    
     22.5444    
     17.6178    
     17.5696    
     21.5601    
     18.1117    
     17.6193    
     21.0685    
     18.1128    
     17.5508    
     19.5915    
     19.5919    
     24.5191    
     21.5634    
     19.1004    
     24.5202    
     38.3160    
     30.9261    
     17.5225    
     17.5194    
     17.5162    
     21.5664    
     17.5099    
     18.1184    
     17.5037    
     17.5005    
     19.1048    
     20.0906    
     26.0032    
     17.6279    
     19.5990    
     21.5702    
     24.0339    
     26.0051    
     17.4723    
     17.4691    
     17.4660    
     17.4628    
     17.4597    
     17.4566    
     17.4534    
     17.4503    
     17.4471    
     17.4440    
     17.4409    
     17.4377    
     17.4346    
     17.4314    
     17.4283    
     17.4251    
     17.4220    
     17.4189    
     17.4157    
     17.4126    
     17.4094    
     17.4063    
     19.1160    
     24.5359    
     17.3969    
     17.6391    
     21.0882    
     25.5229    
     23.0597    
     27.0016    
     27.9873    
     18.1340    
     24.5392    
     27.4958    
     17.3655    
     22.5696    
     25.0334    
     23.0630    
     18.1366    
     17.3498    
     30.9472    
     29.4695    
     21.5868    
     25.0360    
     32.9195    
     23.0659    
     17.3278    
     20.1106    
     22.5744    
     21.5894    
     31.4435    
     33.9074    
     30.4589    
     24.0543    
     19.6204    
     18.1428    
     21.5920    
     31.9388    
     17.2901    
     17.2870    
     17.2838    
     17.2807    
     24.0576    
     24.5506    
     17.2713    
     28.9856    
     25.5372    
     21.1034    
     18.1476    
     28.0017    
     34.4071    
     18.6414    
     17.2461    
     17.2430    
     29.9744    
     29.4821    
     18.1506    
     25.0485    
     17.2273    
     19.1370    
     17.2210    
     17.2179    
     21.1089    
     19.1385    
     17.2084    
     17.2053    
     17.2022    
     24.0668    
     27.0233    
     36.8775    
     40.8193    
     44.2686    
     38.3567    
     32.9375    
     40.3281    
     37.3724    
     33.9239    
     21.1144    
     20.6220    
     31.4615    
     37.3743    
     31.9549    
     26.0430    
     21.6092    
     28.0145    
     21.1173    
     30.9715    
     33.4352    
     20.6257    
     26.5383    
     38.8559    
     24.0756    
     20.1344    
     19.6421    
     28.0182    
     44.7701    
     35.9019    
     34.4243    
     25.5563    
     17.0985    
     25.5570    
     24.0792    
     23.5869    
     19.1531    
     29.9926    
     29.9930    
     21.1250    
     21.1253    
     22.1110    
     24.5748    
     32.4582    
     20.1414    
     20.1417    
     21.1275    
     35.9085    
     38.8650    
     41.3289    
     37.3877    
     38.8661    
     47.7349    
     32.4618    
     17.6816    
     24.0868    
     40.8387    
     53.6490    
     27.0441    
     25.5665    
     21.6253    
     17.0075    
     23.1040    
     17.1921    
     24.5828    
     26.0612    
     30.9886    
     24.5838    
     32.4673    
     22.6139    
     25.5705    
     20.1512    
     18.6735    
     19.1665    
     20.6450    
     34.4407    
     30.0068    
     27.5437    
     25.0806    
     28.0371    
     16.9478    
     19.1694    
     23.1112    
     24.0970    
     17.1997    
     27.5466    
     29.0249    
     33.4595    
     38.8795    
     38.8798    
     48.2413    
     42.3294    
     30.5052    
     52.1839    
     50.2135    
     40.8528    
     42.3312    
     36.4193    
     34.4490    
     33.9566    
     35.4350    
     38.8841    
     45.7823    
     30.5092    
     50.7098    
     47.2613    
     43.8130    
     43.8133    
     51.6966    
     48.7408    
     36.9167    
     28.5414    
     25.5856    
     43.8155    
     49.7280    
     40.8600    
     41.3531    
     47.2657    
     55.6418    
     47.7591    
     49.7302    
     56.6282    
     55.6432    
     50.7167    
     37.9071    
     36.9221    
     40.8639    
     40.8643    
     34.9524    
     31.0113    
     30.5189    
     31.0120    
     51.2126    
     49.2422    
     55.1548    
     52.6918    
     55.6482    
     53.1852    
     54.1709    
     55.1566    
     66.4888    
     66.4892    
     50.7235    
     44.8116    
     42.3485    
     57.1295    
     56.1445    
     64.0279    
     67.4771    
     64.0286    
     49.2483    
     53.6829    
     47.7709    
     46.7858    
     50.2351    
     48.7573    
     52.6993    
     57.1338    
     57.1342    
     66.9883    
     57.6275    
     51.2229    
     57.1356    
     62.5555    
     65.5120    
     72.4100    
     72.9031    
     67.9765    
     63.5427    
     50.7331    
     51.2261    
     67.4853    
     66.5003    
     74.3836    
     81.7743    
     56.6475    
     60.5894    
     67.4875    
     71.4293    
     60.5904    
     54.1859    
     55.6643    
     64.5331    
     74.3872    
     76.8511    
     78.3295    
     74.8810    
     73.4032    
     66.5060    
     65.0282    
     60.5943    
     64.5363    
     66.0147    
     58.1320    
     52.7128    
     69.4646    
     90.1579    
     90.6509    
     87.6952    
     83.7540    
     88.1886    
     81.2913    
     72.4231    
     53.2087    
     72.4238    
     84.2487    
     79.3223    
     72.9176    
     74.3960    
     83.2648    
     77.3529    
     70.9483    
     73.4121    
     83.2663    
     85.2373    
     80.3108    
     86.7162    
     76.3700    
     76.3703    
     76.3707    
     73.4149    
     67.9956    
     72.4302    
     75.8794    
     74.4017    
     86.2266    
     96.5735    
    109.8765    
     91.1546    
     86.7208    
     88.1992    
     89.1849    
     95.5902    
     95.5905    
     95.0982    
     95.5912    
     91.1574    
     92.1431    
    100.5192    
     97.0707    
    101.9980    
     96.0860    
     96.5791    
     93.1305    
    122.1996    
    109.3901    
     95.1024    
    102.9858    
    110.3765    
    110.3769    
    114.3187    
    119.2460    
    104.9583    
    116.2906    
    129.5935    
    122.6962    
    118.7551    
    128.1165    
    122.6973    
    118.2634    
    107.9173    
    105.9469    
    105.4545    
     89.1961    
    102.4991    
    117.7728    
    113.3390    
    102.5002    
    104.9639    
    103.9790    
    101.0231    
    104.9650    
    105.4580    
    109.3999    
    107.4295    
    106.9372    
    118.2694    
    118.7625    
    120.2408    
    128.6169    
    120.7342    
    122.2126    
    124.1838    
    130.0964    
    138.4724    
    124.1848    
    124.1852    
    131.5759    
    136.9957    
    128.6203    
    124.6792    
    125.1723    
    139.4606    
    138.4756    
    152.2713    
    141.4324    
    136.0132    
    136.5062    
    159.1703    
    166.0683    
    161.1418    
    159.1713    
    153.7522    
    155.2306    
    136.0160    
    131.0894    
    157.2023    
    166.5638    
    158.6811    
    159.1741    
    152.2768    
    137.9892    
    145.3799    
    150.3071    
    158.6832    
    159.6689    
    183.3185    
    194.1580    
    175.4361    
    173.9584    
    179.3782    
    168.5394    
    164.1056    
    159.1790    
    160.1648    
    156.7162    
    158.1946    
    171.0049    
    176.9175    
    174.4545    
    175.9329    
    183.8163    
    192.1923    
    177.4120    
    174.4563    
    185.2958    
    196.6280    
    187.2673    
    187.2676    
    195.1510    
    177.4145    
    186.2832    
    186.7762    
    191.7034    
    190.7185    
    204.5141    
    193.6753    
    204.0221    
    205.5005    
    209.4423    
    215.8477    
    228.1653    
    218.8045    
    217.8195    
    210.4295    
    207.9663    
    205.0106    
    210.9232    
    208.9528    
    203.5335    
    211.9095    
    218.8076    
    218.8080    
    211.4180    
    211.4183    
    214.8675    
    222.7509    
    217.3317    
    226.2003    
    228.1715    
    227.1864    
    219.7965    
    223.7383    
    224.2314    
    206.9875    
    218.8125    
    225.7104    
    227.1888    
    213.3940    
    213.8869    
    224.2338    
    230.1464    
    232.1174    
    233.1032    
    245.4208    
    249.8553    
    243.4507    
    240.0022    
    238.0318    
    240.9883    
    255.7693    
    254.2916    
    247.3942    
    263.1607    
    262.1757    
    258.7271    
    265.1324    
    249.8594    
    245.4256    
    252.8163    
    266.6120    
    250.3536    
    260.7003    
    269.5691    
    273.5109    
    272.5260    
    284.8435    
    276.4681    
    277.9465    
    284.3518    
    285.3376    
    280.4109    
    284.8455    
    274.4995    
    268.5875    
    274.0074    
    278.4420    
    273.0227    
    282.3842    
    276.4723    
    263.1700    
    276.4729    
    289.7758    
    283.8639    
    284.3569    
    287.3135    
    298.6457    
    294.7044    
    291.2560    
    307.5151    
    301.1104    
    292.7351    
    302.5893    
    296.1846    
    303.0826    
    300.1268    
    308.9955    
    313.4301    
    329.6892    
    329.1968    
    327.7191    
    324.2707    
    324.2710    
    330.1837    
    322.3009    
    332.1550    
    332.1553    
    330.1850    
    326.7364    
    341.5176    
    349.8936    
    338.0694    
    339.5478    
    331.1723    
    338.5630    
    345.9538    
    358.7640    
    366.6474    
    373.5454    
    367.6334    
    352.8531    
    362.7073    
    378.4737    
    372.5618    
    360.2448    
    363.6939    
    369.1139    
    374.5338    
    377.4903    
    385.8665    
    385.3740    
    389.8086    
    371.5793    
    383.4043    
    382.9119    
    386.8539    
    396.7079    
    395.2302    
    406.5623    
    409.5189    
    406.5630    
    403.6073    
    410.5053    
    403.6080    
    401.6375    
    406.5647    
    429.7216    
    425.7803    
    433.1709    
    430.7079    
    416.4203    
    421.3475    
    437.1140    
    426.2750    
    434.1584    
    439.0857    
    442.5349    
    456.3304    
    452.3894    
    441.5504    
    442.0435    
    454.3610    
    464.2153    
    474.5620    
    491.3139    
    487.8654    
    479.4900    
    474.5634    
    468.1588    
    487.8667    
    476.5351    
    469.6379    
    468.1602    
    475.5507    
    474.0731    
    471.6099    
    472.1030    
    477.0302    
    481.4648    
    473.5821    
    479.0019    
    495.7538    
    502.6517    
    507.5789    
    512.5062    
    504.1308    
    502.1604    
    512.5071    
    498.7122    
    500.1906    
    515.4643    
    522.8551    
    525.8116    
    532.2168    
    541.0856    
    534.1883    
    541.0862    
    560.3014    
    537.6382    
    530.2482    
    544.0437    
    552.4197    
    544.5372    
    561.2889    
    554.3916    
    572.1287    
    595.2854    
    580.0124    
    589.8665    
    592.3303    
    596.7649    
    593.3163    
    583.9556    
    595.2877    
    571.1463    
    584.4493    
    598.2450    
    610.5625    
    609.5775    
    615.9828    
    604.6513    
    596.7686    
    613.5203    
    617.4623    
    616.9698    
    630.7655    
    639.1415    
    633.2296    
    629.7811    
    632.7375    
    626.3330    
    628.7966    
    629.7823    
    641.6074    
    649.9834    
    645.5495    
    633.2327    
    644.5647    
    661.3166    
    662.7949    
    676.0979    
    670.1860    
    670.1863    
    673.6354    
    679.5481    
    693.8365    
    691.8661    
    690.8810    
    689.8959    
    682.9987    
    689.4039    
    706.6484    
    724.3854    
    724.3858    
    711.0836    
    728.3280    
    732.2698    
    740.6460    
    748.0366    
    741.1393    
    731.7786    
    756.4135    
    757.8917    
    757.3994    
    762.3267    
    767.2538    
    778.5860    
    790.4109    
    791.3967    
    800.2653    
    812.5829    
    810.6124    
    794.3540    
    799.7740    
    793.8621    
    792.3843    
    812.5849    
    814.0633    
    816.5272    
    816.5275    
    845.5964    
    845.5968    
    848.0605    
    840.1779    
    836.2367    
    849.0470    
    871.7110    
    874.6675    
    877.6239    
    861.3655    
    864.8148    
    871.7126    
    870.7277    
    875.6548    
    877.1332    
    889.9436    
    889.4512    
    902.7542    
    894.8713    
    902.2620    
    922.4626    
    933.3021    
    921.9705    
    906.6975    
    908.1760    
    929.8547    
    941.1869    
    925.9139    
    942.6656    
    936.7537    
    938.2321    
    939.7103    
    939.7106    
    944.1454    
    952.0287    
    959.9120    
    968.2881    
    974.2006    
    976.6646    
    979.6210    
    983.0701    
    990.4609    
    988.9830    
    990.9540    
    998.3449    
   1000.8085    
    993.4185    
   1008.1996    
   1001.3022    
   1005.2440    
   1021.5033    
   1025.9377    
   1013.6209    
   1034.3141    
   1045.6464    
   1040.7197    
   1025.4468    
   1023.9690    
   1057.4723    
   1066.8335    
   1057.9655    
   1045.1559    
   1049.5906    
   1064.8643    
   1054.0254    
   1082.6017    
   1082.1093    
   1078.1681    
   1091.9637    
   1085.5591    
   1100.8328    
   1099.3551    
   1110.6871    
   1121.0342    
   1107.2390    
   1125.9614    
   1115.6154    
   1121.5281    
   1129.9041    
   1152.5680    
   1161.9297    
   1167.3495    
   1169.3206    
   1172.2772    
   1170.3066    
   1178.1901    
   1193.9563    
   1195.9274    
