  11100 11  1 02T3.SP    PUC068 TLL  .000 # S1 072588 00.01   1        
  PROGRAM PE-CONVERT VERSION 02.30                                     
  USER TLL DATE & TIME  1988 08 09 14.06 03.01    4.0000    295K #     
 AU1 TM  75     0     0 YAG              .300000 - 1.950000 .00020     
 FILE NAME ON PE-3600 = 002T3.SP          ON PC = 002T0003.SP          
 NO_POINTS  =  8251.    pts   DATA_INTV =  .000200 æm                  
 MIN_LAMBDA =   .300000 æm     MIN_DATA =  0.000000                    
 MAX_LAMBDA =  1.950000 æm     MAX_DATA =  61305.00                    
 SCANSPEED  = .03000000 æm/min SLITWIDTH=   .00020 æmITA =   0.        
       RESP =    .500   sec        ISMS =   0.       DATE=88/07/25     
       INST = 509.                    ? =   0.                         
 FILES NP07258.06 + NP08108.04 + NP08158.01 WITH THE APPROPRIATE       
 RECORDS DELETED TO AVOID DUPLICATION OF WAVELENGTHS                   
  This spectra is part of Database LASERS
 Database LASERS was created by Pat Cross working 
 at NASA Langley Research Center, Internal Operations Group,
 Aerospace Electronics Systems Division, Remote Sensing 
 Technology Branch. phone:(757)864-1633   fax:(757)864-7894 
     e-mail p.l.cross@larc.nasa.gov 
     homepage http://aesd.larc.nasa.gov/laser/dbmain.htm
  EOH     (1X,F11.4)                                                   
  8251.         
    708.2258    
    907.7853    
    955.7217    
    546.7997    
    757.8047    
    980.5657    
    501.3039    
    811.5931    
    495.0040    
    482.5852    
    736.5961    
    815.3865    
    554.4484    
    703.1454    
    881.6288    
    453.2893    
    366.9752    
    291.1182    
    933.1945    
    619.7332    
    720.9470    
    582.3179    
    693.7493    
    345.7025    
    530.3802    
    724.3479    
    530.0859    
    546.4050    
    622.5389    
    638.8897    
    279.2575    
    338.3956    
    576.4609    
    565.9738    
    454.7207    
    586.1974    
    390.7619    
    627.0443    
    608.2678    
    468.1184    
    351.0719    
    611.7408    
    562.0634    
    664.9420    
    551.3108    
    614.9355    
    495.3235    
    602.0776    
    486.6247    
    484.3231    
    342.6945    
    414.0810    
    491.7675    
    606.6958    
    542.6101    
    441.7258    
    628.5272    
    353.1453    
    481.9127    
    397.5924    
    510.0731    
    511.8292    
    429.4819    
    339.1680    
    420.6848    
    344.6977    
    418.0165    
    475.0787    
    558.9429    
    370.0087    
    537.7252    
    545.6038    
    596.6690    
    405.4966    
    401.0649    
    251.7316    
    650.8436    
    355.0522    
    477.4665    
    364.5551    
    421.4387    
    400.6161    
    392.0653    
    408.0479    
    462.9309    
    639.1592    
    554.4464    
    463.8095    
    477.7514    
    637.5369    
    626.8317    
    603.7849    
    558.1609    
    457.2801    
    489.6306    
    495.3526    
    376.2887    
    284.1127    
    627.5065    
    458.8148    
    571.1226    
    509.1303    
    605.1432    
    418.1823    
    354.4417    
    374.3951    
    290.3761    
    186.2739    
    344.4671    
    448.1362    
    566.4800    
    416.5332    
    232.7138    
    524.0085    
    331.4557    
    607.1418    
    592.2645    
    462.6688    
    634.3917    
    613.3315    
    379.4720    
    483.1507    
    706.3863    
    656.4653    
    452.9761    
    511.7759    
    628.1455    
    716.0598    
    518.3698    
    579.3126    
    451.8443    
    637.7467    
    518.2491    
    472.6949    
    374.1718    
    532.9670    
    499.6625    
    431.6690    
    586.6035    
    491.8353    
    462.6489    
    500.9161    
    453.3345    
    306.0518    
    372.6373    
    469.9781    
    473.4807    
    460.6332    
    392.7208    
    422.7124    
    593.8877    
    456.2090    
    422.9575    
    663.8718    
    495.2400    
    382.4171    
    345.1692    
    450.5086    
    394.8382    
    416.6335    
    371.1984    
    507.2338    
    323.1672    
    385.6057    
    382.9364    
    435.2773    
    416.2895    
    362.7083    
    412.9629    
    471.4508    
    534.1237    
    594.8604    
    359.4717    
    546.4485    
    341.8921    
    485.8563    
    519.9023    
    380.5736    
    400.2591    
    552.6153    
    566.2495    
    471.5872    
    389.4070    
    421.2930    
    373.7970    
    458.6306    
    264.8170    
    292.5154    
    483.0476    
    680.8116    
    559.2401    
    295.8241    
    470.0157    
    659.4563    
    249.1244    
    378.2881    
    395.8743    
    285.4970    
    559.5829    
    359.1497    
    125.6158    
    317.0962    
    436.2818    
    496.6808    
    782.7138    
    536.0055    
    295.1859    
    507.9725    
    548.0428    
    416.8289    
    499.5866    
    447.8830    
    618.5864    
    306.1821    
    494.4914    
    514.1151    
    448.1331    
    388.3830    
    532.1906    
    419.3651    
    430.7921    
    364.9809    
    455.6841    
    383.7277    
    235.0002    
    331.4244    
    458.6369    
    574.0674    
    487.5893    
    442.0012    
    396.4765    
    634.2027    
    435.5259    
    546.7560    
    566.3506    
    437.1656    
    438.3856    
    676.3442    
    491.6972    
    535.7117    
    284.9958    
    485.1487    
    608.7477    
    448.8964    
    607.0663    
    692.1486    
    468.7677    
    614.7467    
    379.7197    
    523.2561    
    708.3604    
    668.5900    
    647.2679    
    636.1814    
    649.6304    
    718.3712    
    746.1968    
    891.2521    
    908.9073    
    990.5508    
   1033.0637    
    865.0438    
   1278.2863    
    972.4891    
    981.9084    
   1063.6990    
   1013.1425    
   1336.1998    
   1216.5319    
   1248.8823    
   1362.6102    
   1238.6886    
   1346.1046    
   1422.4661    
   1532.5581    
   1706.2329    
   1855.3647    
   2034.9656    
   2620.6418    
   3831.5366    
   6218.1274    
   7349.0537    
   4790.4517    
   4163.6143    
   5783.5825    
   9499.6523    
  11088.6289    
   4643.6890    
   2325.3901    
   1863.5748    
   1704.0575    
   2131.6616    
   2331.9617    
   4072.7021    
   5552.4404    
   6999.3643    
   4924.1558    
   3676.6145    
   3381.5842    
   2994.8176    
   1992.3665    
   1581.4388    
   1656.1014    
   1459.9440    
   1694.0603    
   1581.5679    
   1848.2488    
   1906.5146    
   2642.8081    
   3842.0107    
   4377.5474    
   2924.5923    
   2071.2441    
   1710.0178    
   1725.8356    
   1520.9349    
   1486.3967    
   1691.0846    
   1841.9803    
   2059.4822    
   2227.0103    
   2399.6689    
   2331.9673    
   2418.9724    
   1930.8667    
   1722.6416    
   1246.6771    
   1112.9708    
    948.9065    
    960.2383    
   1016.9153    
    962.3036    
   1016.9168    
   1168.8524    
   1147.0968    
   1262.1946    
   1074.6895    
    781.5887    
   1016.8735    
    687.5222    
    844.0813    
    553.0283    
    629.3669    
    540.8215    
    495.1129    
    289.7216    
    236.3094    
    313.9317    
    387.6844    
    354.3115    
    442.3276    
    239.3009    
    513.2849    
    283.6129    
    129.7013    
    211.0740    
    318.8674    
    142.7107    
    270.4210    
    255.2876    
     67.4589    
    152.6718    
    211.9341    
    239.0755    
    217.9173    
    261.1675    
    328.6830    
    281.2495    
    316.4994    
    293.2687    
     75.2109    
    382.0066    
    324.4054    
    424.3856    
    409.1637    
    126.1246    
    455.6120    
    190.2741    
    368.5255    
    539.5994    
    414.9046    
    482.6713    
    233.2383    
    531.2227    
    410.6104    
    264.2547    
    281.3099    
    292.3275    
    222.8177    
    141.4189    
     88.2468    
    399.0023    
    426.2253    
    350.3815    
      0.0000    
    173.1132    
    234.3168    
    327.8752    
    258.3005    
    295.4652    
    344.7720    
    289.2555    
    358.7215    
    418.2157    
    344.4178    
    337.2680    
    356.3364    
    399.6500    
    333.9570    
    318.7438    
    174.8657    
    296.3853    
    416.3250    
    340.5180    
    301.1188    
    552.6933    
    264.6780    
    205.2823    
    326.8821    
    327.7796    
    270.2826    
    363.8492    
    284.1408    
    297.1097    
    318.1423    
    296.8787    
    195.2573    
    244.3415    
    295.5122    
    300.4229    
    273.1340    
    435.3194    
    248.7553    
    237.5776    
    369.3071    
    366.1488    
    274.3798    
    212.9642    
    390.9630    
    387.7974    
    372.5277    
    268.6838    
    303.7469    
    314.6744    
    329.6371    
    147.7180    
    206.7227    
    416.9229    
    337.1123    
    426.7201    
    236.2517    
    305.4590    
    306.3136    
    250.8711    
    299.9697    
    268.6446    
    111.0956    
    260.2982    
    404.1075    
    288.1190    
    319.1423    
    366.3093    
    403.4457    
    323.6825    
    288.3136    
    281.1097    
    356.4017    
    170.4086    
    227.3839    
    326.6912    
    424.2702    
    340.4333    
    423.9159    
    215.4895    
    280.5665    
    287.4214    
    230.0064    
    262.9528    
    384.4991    
    415.5681    
    283.4981    
    393.0085    
    216.8849    
    392.6262    
    399.4919    
    205.3021    
    272.3282    
    345.5263    
    310.1272    
    204.5425    
    307.7258    
    407.1945    
    245.0705    
    201.7611    
    190.5452    
    257.5173    
    236.2520    
    444.3009    
    348.3564    
    274.7780    
    287.6265    
    342.7063    
    269.1401    
    243.8479    
    351.1272    
    321.7502    
    342.6525    
    303.2324    
    320.1012    
    429.6239    
    384.0546    
    380.8125    
    244.9377    
    289.8750    
    451.7091    
    422.2349    
    292.2219    
    299.0285    
    317.8885    
    314.6467    
    442.2641    
    215.8767    
    176.6073    
    305.6942    
    202.1744    
    259.0651    
    362.2922    
    266.6248    
    375.9047    
    270.1655    
    246.8655    
    384.2421    
    397.0873    
    241.1395    
    265.9654    
    304.8568    
    293.5711    
    226.1509    
    260.9819    
    340.0421    
    471.7114    
    313.4250    
    201.8992    
    250.7277    
    197.4001    
    298.3661    
    317.1880    
    309.9061    
    370.9423    
    407.9211    
    296.0895    
    296.8353    
    420.2278    
    320.4065    
    393.5257    
    187.6093    
    318.6151    
    315.3386    
    308.0485    
    282.6998    
    213.3127    
    284.1731    
    294.9402    
    386.0828    
    300.4213    
    425.7936    
    317.9419    
    310.6418    
    323.4156    
    243.9302    
    256.6775    
    139.3977    
    318.2954    
    216.8019    
    337.8156    
    268.3167    
    315.1696    
    341.9885    
    324.6364    
    207.1295    
    195.8486    
    296.6964    
    363.6656    
    260.0448    
    340.9858    
    297.5495    
    210.1419    
    343.1251    
    273.6278    
    270.3300    
    327.1898    
    358.0206    
    316.5664    
    265.1501    
    265.8562    
    314.6714    
    285.2999    
    330.1270    
    190.6393    
    331.5312    
    282.0949    
    316.8799    
    333.6310    
    246.1401    
    276.8734    
    343.7483    
    304.3224    
    301.0044    
    245.6122    
    374.6414    
    267.0208    
    400.1472    
    250.3836    
    285.1174    
    321.8864    
    306.5321    
    357.3775    
    269.8376    
    184.5274    
    331.3369    
    384.2217    
    332.7039    
    203.2463    
    406.3654    
    272.6162    
    337.4367    
    452.6642    
    382.9600    
    237.3080    
    338.1387    
    292.7079    
    371.6028    
    360.2313    
    188.7217    
    351.5427    
    246.0276    
    276.7146    
    235.3692    
    222.0419    
    314.7837    
    393.7091    
    312.1069    
    340.8414    
    301.4190    
    368.2580    
    272.7108    
    307.4179    
    318.0963    
    178.7610    
    321.4254    
    322.0853    
    254.6687    
    105.6476    
    287.9990    
    425.0824    
    251.2964    
    293.9723    
    210.6338    
    217.2811    
    299.9416    
    206.6028    
    261.2178    
    358.0159    
    160.6614    
    301.1900    
    400.1068    
    344.5671    
    281.1119    
    241.7594    
    388.6375    
    191.1233    
    311.7251    
    348.4380    
    329.0331    
    237.6308    
    256.2595    
    250.9013    
    299.5547    
    272.1792    
    308.8369    
    209.5063    
    226.1181    
    270.7268    
    243.3745    
    378.1619    
    350.7190    
    467.8253    
    299.9053    
    344.5974    
    251.1687    
    275.7892    
    214.4768    
    243.0648    
    245.6889    
    332.3455    
    385.0954    
    413.8220    
    529.1044    
    503.5432    
    315.4455    
    228.0966    
    414.9362    
    381.4402    
    345.9743    
    346.5949    
    215.2326    
    329.8074    
    406.6078    
    277.0155    
    265.6390    
    328.2694    
    366.9533    
    351.5348    
    278.0972    
    360.7777    
    443.6625    
    231.9861    
    294.5435    
    291.1564    
    283.7671    
    296.3748    
    525.7761    
    462.0047    
    328.2174    
    286.8094    
    341.4441    
    354.0673    
    366.6918    
    325.2404    
    357.8822    
    430.6877    
    333.0562    
    279.6493    
    344.2672    
    338.8600    
    359.4905    
    384.1353    
    336.6581    
    393.3558    
    363.8854    
    428.6553    
    423.2315    
    351.6552    
    342.2369    
    340.8313    
    367.4567    
    404.1325    
    474.9927    
    491.6674    
    261.8153    
    294.3731    
    340.9695    
    397.6516    
    350.1515    
    394.8155    
    409.4416    
    363.9330    
    386.5543    
    397.1615    
    431.8459    
    348.2505    
    424.9888    
    453.6724    
    400.0803    
    474.9242    
    369.1869    
    488.1435    
    416.4431    
    423.0411    
    375.5081    
    426.2023    
    384.6812    
    479.5581    
    379.8237    
    382.4033    
    455.1765    
    497.9365    
    458.3312    
    470.9534    
    487.5987    
    538.4449    
    470.6643    
    567.7750    
    544.1871    
    556.8355    
    491.0246    
    590.2060    
    560.5563    
    603.4366    
    711.0310    
    780.4383    
    856.0845    
   1044.0648    
   1276.2753    
   1998.4073    
   3188.7366    
   3315.8936    
   3155.0242    
   4156.2886    
   4601.5884    
   3918.3176    
   3148.5615    
   3755.0825    
   3484.2336    
   2174.7317    
   1578.4823    
   1277.3966    
   1019.8098    
    892.0377    
    740.4666    
    769.3666    
    727.4137    
    721.9013    
    724.4756    
    741.2144    
    759.9854    
    916.8078    
    962.1433    
   1148.5796    
   1338.1157    
   1757.4111    
   2226.4314    
   2119.2563    
   1775.7485    
   1446.0857    
   1423.9099    
   1414.1310    
   1542.9264    
   1462.7432    
   1242.8009    
   1179.7400    
   1245.9465    
   1254.7058    
   1146.5400    
    993.8552    
    963.8356    
   1023.4880    
    981.2120    
   1010.2895    
   1002.6746    
   1103.2642    
   1122.2102    
    943.1851    
    874.6053    
    856.8724    
    719.6754    
    758.6378    
    613.7894    
    612.3120    
    572.5776    
    623.4556    
    617.9454    
    539.9848    
    734.0596    
    915.0311    
   1031.6395    
   1128.1896    
   1573.5812    
   1911.7002    
   1922.7007    
   1542.0154    
   1110.3855    
    937.5712    
    700.9672    
    768.2068    
    738.3951    
    662.1810    
    533.8592    
    693.5011    
    609.3370    
    646.1318    
    588.2391    
    691.5619    
    599.3513    
    529.4915    
    582.2844    
    466.3117    
    649.7892    
    549.6597    
    546.1594    
    673.5347    
    738.6716    
    714.9443    
    794.3279    
    687.7146    
    601.5630    
    547.7792    
    602.5961    
    524.7007    
    543.2974    
    584.0208    
    594.5968    
    617.2520    
    545.3541    
    493.6663    
    414.0324    
    366.5475    
    333.1027    
    385.5590    
    444.1076    
    422.5937    
    627.8992    
    664.6786    
    522.3463    
    406.6196    
    333.1862    
    371.6432    
    460.1964    
    314.7559    
    285.3489    
    295.8211    
    428.1764    
    308.7954    
    353.2068    
    212.2211    
    382.1850    
    356.7171    
    301.3451    
    351.7321    
    312.3166    
    292.8831    
    369.2100    
    335.7665    
    372.2109    
    288.9035    
    491.2963    
    491.7949    
    701.4657    
    734.2642    
    742.8422    
    801.9706    
    717.5829    
    524.8641    
    391.1722    
    323.7793    
    320.2842    
    225.1826    
    279.4177    
    385.6530    
    324.2561    
    300.8208    
    297.3286    
    240.0737    
    262.4575    
    338.6840    
    267.4212    
    273.8835    
    346.1392    
    288.8047    
    283.3164    
    271.8564    
    220.6163    
    298.7284    
    311.1733    
    291.7312    
    236.4830    
    221.0639    
    243.4202    
    257.8350    
    286.1919    
    254.8234    
    247.3500    
    265.7405    
    294.1007    
    189.1719    
    213.4912    
    239.8162    
    228.3677    
    206.9886    
    300.9754    
    225.8330    
    258.1332    
    212.8829    
    211.3723    
    249.6239    
    242.1477    
    274.4569    
    266.9742    
    285.3647    
    281.8634    
    258.4536    
    258.9294    
    311.1747    
    305.6693    
    316.1057    
    354.4659    
    251.3576    
    251.8311    
    260.2619    
    256.7555    
    303.0066    
    283.5676    
    264.1377    
    294.4666    
    261.1003    
    273.5125    
    283.9305    
    278.4281    
    239.1182    
    257.4826    
    299.7432    
    276.3268    
    290.7245    
    289.2008    
    255.8455    
    210.6022    
    262.7433    
    293.0574    
    229.8805    
    222.3974    
    324.3301    
    308.8576    
    275.4807    
    262.0179    
    244.5890    
    308.7170    
    287.2791    
    216.1721    
    292.1843    
    256.8411    
    239.4095    
    237.8827    
    262.1957    
    256.6921    
    269.0823    
    231.7777    
    264.0333    
    372.0480    
    314.7007    
    305.2057    
    291.7275    
    246.4443    
