  11100 11  1   BR82     POSU   BMW  .000 U SI 022092 00.01   1        
  PROGRAM LAMBDA-9   VERSION 02.31                                     
  USER BMW DATE & TIME  1992 02 24 09.30 57.41    4.3900    295K S     
 AU1 TM 300     0     0 YLF             1.000000 - 1.400000 .00020     
 FILE NAME                                ON PC = BR82.DX              
 NO_POINTS  =  2001.    pts   DATA_INTV =  .000200 ˆm                  
 MIN_LAMBDA =  1.000000 ˆm     MIN_DATA =    .21450                    
 MAX_LAMBDA =  1.400000 ˆm     MAX_DATA =    .88030                    
 SCANSPEED  = 60.000000 NM/MIN SLITWIDTH=   .00000 ˆm                  
  RESP TIME =  1.0      sec SENSITIVITY = 5          DATE=92/02/20     
 HORIZONTAL POL. (E PERPENDICULAR TO C-AXIS)                           
  This spectra is part of Database LASERS
 Database LASERS was created by Pat Cross working 
 at NASA Langley Research Center, Internal Operations Group,
 Aerospace Electronics Systems Division, Remote Sensing 
 Technology Branch. phone:(757)864-1633   fax:(757)864-7894 
     e-mail p.l.cross@larc.nasa.gov 
     homepage http://aesd.larc.nasa.gov/laser/dbmain.htm
  EOH     (1X,F11.4)                                                   
  2001.         
    253.5757    
    252.6841    
    259.8480    
    265.2267    
    261.6454    
    259.8564    
    265.2351    
    261.6537    
    254.4932    
    247.3394    
    236.6204    
    233.9446    
    262.5632    
    265.2547    
    261.6732    
    258.0935    
    259.8871    
    269.7481    
    261.6844    
    272.4444    
    274.2418    
    262.5882    
    262.5910    
    250.9558    
    255.4329    
    263.4955    
    264.3945    
    269.7759    
    250.9697    
    242.9260    
    239.3551    
    238.4646    
    237.5742    
    236.6844    
    240.2590    
    235.7970    
    232.2294    
    217.0775    
    208.1794    
    228.6691    
    238.4895    
    245.6404    
    234.9235    
    244.7520    
    255.4883    
    242.0766    
    238.5061    
    242.0821    
    245.6598    
    240.3005    
    244.7713    
    247.4559    
    240.3088    
    268.9509    
    267.1608    
    268.9564    
    264.4774    
    258.2098    
    259.1082    
    242.1151    
    240.3308    
    236.7617    
    231.4087    
    246.5947    
    249.2804    
    243.9186    
    239.4544    
    230.5301    
    236.7809    
    228.7517    
    235.0005    
    232.3259    
    228.7600    
    243.0473    
    248.4134    
    251.0992    
    252.8916    
    263.6388    
    269.0195    
    243.0637    
    234.1351    
    220.7617    
    218.0915    
    217.2040    
    205.6378    
    217.2094    
    201.1988    
    212.7631    
    212.7659    
    208.3194    
    220.7863    
    222.5709    
    229.7067    
    243.9952    
    240.4238    
    248.4707    
    239.5364    
    235.9671    
    237.7554    
    232.4023    
    228.8363    
    225.2721    
    230.6256    
    216.3678    
    229.7393    
    234.2032    
    234.2059    
    237.7798    
    239.5690    
    237.7852    
    234.2168    
    236.8981    
    231.5451    
    221.7394    
    228.8743    
    217.2910    
    215.5124    
    218.1866    
    241.3824    
    253.9030    
    235.1366    
    235.1393    
    228.0039    
    214.6409    
    221.7691    
    222.6631    
    218.2109    
    210.2020    
    203.9791    
    213.7672    
    208.4305    
    210.2128    
    214.6652    
    210.2182    
    213.7807    
    209.3337    
    205.7787    
    193.3426    
    212.0111    
    210.2343    
    190.6879    
    196.0170    
    207.5737    
    218.2567    
    217.3691    
    230.7417    
    235.2066    
    215.5959    
    228.0739    
    228.0766    
    216.4945    
    205.8189    
    218.2808    
    214.7215    
    206.7164    
    219.1797    
    230.7712    
    219.1850    
    229.8848    
    232.5640    
    239.7089    
    239.7116    
    220.9805    
    223.6565    
    217.4226    
    222.7704    
    220.1001    
    217.4306    
    225.4524    
    216.5453    
    222.7838    
    220.1134    
    216.5533    
    221.0098    
    221.9031    
    229.9301    
    226.3654    
    229.9355    
    218.3502    
    220.1347    
    217.4652    
    217.4679    
    215.6893    
    212.1313    
    188.1436    
    201.4651    
    207.6912    
    207.6938    
    199.6956    
    204.1422    
    206.8123    
    213.0427    
    214.8254    
    213.0480    
    211.2710    
    200.6028    
    213.0559    
    219.2914    
    199.7221    
    208.6147    
    207.7282    
    202.3959    
    213.9620    
    215.7449    
    211.2974    
    213.9700    
    230.0123    
    234.4761    
    225.5585    
    234.4814    
    235.3768    
    234.4867    
    230.9198    
    231.8148    
    242.5321    
    230.0360    
    230.0387    
    222.9082    
    210.4444    
    215.7871    
    207.7810    
    212.2317    
    212.2343    
    222.0327    
    222.9266    
    215.8029    
    235.4189    
    258.6665    
    246.1439    
    229.1807    
    219.3784    
    216.7092    
    204.2556    
    213.1534    
    218.4980    
    203.3743    
    209.6018    
    216.7249    
    208.7173    
    190.0628    
    199.8326    
    214.0645    
    207.8387    
    220.3034    
    224.7614    
    222.0903    
    222.9843    
    222.9869    
    227.4470    
    220.3190    
    233.6968    
    236.3772    
    231.9170    
    239.0611    
    234.5994    
    218.5528    
    219.4463    
    223.0130    
    244.4343    
    240.8629    
    235.5078    
    238.1887    
    221.2440    
    215.9022    
    218.5763    
    227.4913    
    211.4598    
    233.7411    
    247.1419    
    221.2622    
    228.3957    
    228.3983    
    231.9691    
    224.8369    
    234.6514    
    231.0845    
    217.7172    
    228.4138    
    240.0193    
    217.7250    
    211.4961    
    221.2933    
    226.6436    
    226.6461    
    240.0349    
    232.8952    
    205.2853    
    213.2939    
    223.0934    
    223.0960    
    215.0817    
    217.7560    
    215.0869    
    208.8602    
    216.8731    
    222.2202    
    215.0972    
    217.7715    
    199.9832    
    199.9857    
    183.1257    
    201.7684    
    217.7844    
    217.7869    
    216.0083    
    221.3553    
    224.9222    
    223.1424    
    221.3630    
    209.7912    
    184.9249    
    194.6878    
    202.6850    
    192.0299    
    216.9246    
    230.2960    
    228.5144    
    208.0329    
    199.1460    
    202.7030    
    203.5946    
    213.3814    
    215.1641    
    217.8383    
    221.4041    
    225.8625    
    224.0825    
    214.2870    
    216.9604    
    220.5258    
    215.1845    
    215.1871    
    208.0713    
    209.8527    
    214.3049    
    225.8881    
    227.6742    
    207.1946    
    214.3152    
    215.2075    
    210.7604    
    224.1209    
    218.7771    
    199.2100    
    187.6725    
    199.2151    
    208.9962    
    202.7746    
    211.6708    
    200.1138    
    193.0117    
    193.9021    
    207.2328    
    210.7935    
    185.0374    
    178.8355    
    192.1397    
    196.5810    
    193.9199    
    182.3905    
    183.2791    
    175.3075    
    181.5116    
    186.8337    
    165.5799    
    174.4320    
    184.1811    
    187.7310    
    183.2995    
    178.8710    
    187.7386    
    191.2902    
    201.0610    
    199.2862    
    190.4102    
    191.3003    
    192.1905    
    185.0958    
    178.8938    
    190.4229    
    202.8584    
    201.0837    
    201.0863    
    201.0888    
    205.5358    
    207.3165    
    209.9874    
    201.9877    
    185.1236    
    193.1105    
    189.5637    
    182.4715    
    189.5688    
    205.5585    
    210.0075    
    194.0135    
    195.7921    
    194.9065    
    178.0582    
    188.6991    
    180.7213    
    175.4086    
    169.2146    
    178.9569    
    192.2611    
    196.7024    
    201.1467    
    191.3810    
    186.9474    
    196.7124    
    184.2921    
    179.8632    
    187.8445    
    192.2837    
    193.1734    
    184.3047    
    184.3072    
    178.9920    
    188.7468    
    182.5419    
    178.9995    
    189.6417    
    190.5311    
    191.4211    
    196.7500    
    199.4171    
    209.1982    
    202.9766    
    193.2085    
    194.0989    
    210.9877    
    205.6539    
    189.6692    
    193.2210    
    192.3363    
    178.1510    
    179.0396    
    192.3438    
    205.6714    
    197.6758    
    205.6763    
    208.3466    
    197.6833    
    199.4621    
    201.2419    
    203.9105    
    203.9130    
    208.3615    
    227.9566    
    224.3930    
    239.5627    
    229.7475    
    212.8221    
    205.7087    
    204.8220    
    209.2705    
    203.9379    
    216.3952    
    221.7421    
    217.2907    
    213.7321    
    213.7346    
    215.5171    
    198.6239    
    187.0872    
    195.9646    
    194.1910    
    208.4112    
    204.8568    
    200.4153    
    196.8646    
    198.6437    
    197.7578    
    195.0963    
    207.5390    
    211.9896    
    198.6561    
    201.3238    
    204.8815    
    199.5515    
    199.5540    
    196.8918    
    190.6804    
    180.9283    
    188.0238    
    196.9017    
    190.6903    
    192.4679    
    201.3510    
    204.0196    
    193.3626    
    189.8157    
    194.2554    
    198.6981    
    200.4771    
    196.9264    
    202.2595    
    199.5959    
    212.0464    
    212.0489    
    195.1630    
    220.0664    
    224.5242    
    224.5267    
    234.3399    
    228.9891    
    224.5341    
    218.3000    
    222.7563    
    221.8681    
    206.7384    
    215.6382    
    208.5223    
    218.3148    
    219.2075    
    212.9778    
    213.8704    
    195.2048    
    205.8693    
    206.7606    
    189.8871    
    194.3267    
    199.6574    
    190.7813    
    181.0292    
    192.5614    
    206.7777    
    205.8914    
    212.1201    
    209.4531    
    206.7875    
    209.4580    
    205.9036    
    212.1324    
    206.7973    
    202.3553    
    204.1351    
    197.9178    
    192.5932    
    201.4763    
    206.8120    
    200.5925    
    228.1884    
    230.8664    
    221.0628    
    220.1742    
    214.8340    
    219.2882    
    211.2791    
    201.5007    
    212.1739    
    207.7282    
    211.2888    
    210.4014    
    209.5141    
    223.7626    
    228.2226    
    223.7675    
    226.4439    
    216.6460    
    218.4297    
    212.2007    
    227.3454    
    237.1620    
    236.2715    
    241.6317    
    243.4212    
    241.6365    
    237.1741    
    249.6856    
    250.5825    
    233.6111    
    243.4358    
    255.9576    
    262.2274    
    258.6477    
    253.2805    
    249.7050    
    253.2853    
    265.8233    
    266.7221    
    263.1403    
    257.7693    
    267.6253    
    276.5970    
    261.3582    
    265.8403    
    262.2589    
    254.2044    
    261.3679    
    265.8499    
    262.2686    
    252.4244    
    257.7959    
    272.1352    
    274.8286    
    274.8311    
    277.5255    
    276.6308    
    287.4095    
    306.3077    
    318.0316    
    300.9091    
    293.7125    
    296.4136    
    298.2161    
    305.4218    
    309.0284    
    309.9317    
    312.6385    
    312.6410    
    316.2510    
    309.9413    
    312.6482    
    310.8477    
    301.8409    
    307.2475    
    318.9721    
    340.6641    
    337.0473    
    347.0066    
    349.7267    
    342.4837    
    347.9198    
    351.5461    
    366.0634    
    362.4345    
    361.5292    
    366.0706    
    356.9982    
    363.3519    
    364.2622    
    362.4489    
    361.5436    
    359.7314    
    387.0013    
    389.7357    
    406.1515    
    407.9796    
    398.8570    
    396.1241    
    388.8368    
    398.8642    
    405.2530    
    418.0443    
    420.7899    
    405.2602    
    412.5680    
    412.5704    
    410.7455    
    403.4447    
    407.0976    
    413.4938    
    408.9288    
    429.0476    
    441.8791    
    425.3908    
    416.2473    
    423.5652    
    436.3880    
    435.4738    
    438.2257    
    440.0614    
    434.5645    
    451.0774    
    460.2678    
    438.2376    
    442.8251    
    457.5174    
    461.1969    
    456.6031    
    454.7681    
    465.8030    
    459.3679    
    465.8077    
    474.0947    
    468.5730    
    465.8149    
    465.8173    
    470.4209    
    458.4652    
    463.0644    
    472.2697    
    469.5103    
    495.3297    
    505.4987    
    506.4255    
    501.8049    
    509.2061    
    499.9607    
    482.4245    
    492.5761    
    504.5904    
    496.2744    
    500.8970    
    504.5975    
    504.5999    
    496.2839    
    494.4393    
    494.4416    
    495.3677    
    508.3116    
    524.9857    
    521.2800    
    507.3934    
    526.8472    
    540.7742    
    524.0702    
    524.9999    
    531.4955    
    547.2904    
    555.6672    
    551.9465    
    555.6719    
    537.0773    
    538.9376    
    545.4452    
    554.7503    
    564.9991    
    548.2419    
    544.5248    
    552.8980    
    562.2128    
    579.0056    
    558.4913    
    565.9479    
    570.6125    
    578.0811    
    592.1024    
    584.6247    
    573.4208    
    576.2236    
    585.5665    
    582.7656    
    579.9651    
    594.9256    
    613.6667    
    609.9175    
    604.2963    
    615.5505    
    635.2834    
    637.1673    
    643.7596    
    656.9595    
    674.9085    
    684.3736    
    678.6970    
    691.0099    
    688.1692    
    697.6514    
    711.8947    
    715.6993    
    746.1880    
    745.2362    
    747.1475    
    750.9698    
    770.1003    
    784.4808    
    774.8949    
    768.1926    
    777.7748    
    783.5313    
    788.3314    
    806.5944    
    823.9368    
    838.4196    
    847.1232    
    859.7123    
    846.1603    
    859.7170    
    882.0386    
    909.3013    
    912.2307    
    928.8382    
    932.7530    
    924.9324    
    942.5474    
    953.3333    
    960.2057    
    959.2261    
    969.0524    
    999.5906    
   1002.5545    
   1022.3301    
   1044.1429    
   1042.1602    
   1060.0496    
   1069.0109    
   1066.0256    
   1076.9884    
   1086.9683    
   1106.9657    
   1092.9663    
   1109.9741    
   1131.0360    
   1134.0515    
   1141.0895    
   1156.1904    
   1165.2666    
   1172.3336    
   1181.4285    
   1199.6492    
   1204.7202    
   1215.8850    
   1219.9500    
   1216.9048    
   1229.1050    
   1245.4016    
   1256.6259    
   1253.5659    
   1278.1018    
   1296.5563    
   1295.5321    
   1300.6669    
   1310.9458    
   1320.2083    
   1326.3909    
   1341.8645    
   1358.4050    
   1367.7256    
   1394.7125    
   1404.0784    
   1416.5825    
   1435.3768    
   1445.8398    
   1460.5105    
   1463.6597    
   1480.4673    
   1500.4750    
   1519.4784    
   1514.1976    
   1518.4260    
   1531.1206    
   1543.8364    
   1576.7800    
   1610.9370    
   1631.2919    
   1660.3097    
   1671.0868    
   1687.2802    
   1703.5081    
   1710.0101    
   1726.2869    
   1724.1176    
   1749.1340    
   1776.4199    
   1802.7075    
   1826.8845    
   1845.6199    
   1858.8738    
   1867.7227    
   1914.3425    
   1950.0557    
   1963.4926    
   2011.8331    
   2040.0818    
   2069.5710    
   2104.8823    
   2134.6248    
   2175.9998    
   2196.7732    
   2230.3604    
   2267.5947    
   2286.2820    
   2314.3977    
   2365.0322    
   2412.4392    
   2454.1646    
   2506.9465    
   2558.8855    
   2598.9888    
   2660.1565    
   2702.0347    
   2747.8708    
   2810.2546    
   2861.7952    
   2909.8782    
   2958.2688    
   3017.2610    
   3087.1025    
   3170.7175    
   3239.3401    
   3284.5466    
   3339.4209    
   3402.8169    
   3468.1118    
   3517.4553    
   3556.0576    
   3596.2449    
   3626.8755    
   3661.8333    
   3701.1785    
   3716.6924    
   3756.3228    
   3799.0139    
   3844.8176    
   3877.9116    
   3870.7078    
   3873.5920    
   3856.3208    
   3844.8293    
   3850.5764    
   3846.2698    
   3837.6619    
   3804.7471    
   3767.7102    
   3732.2673    
   3704.0327    
   3652.0708    
   3604.6345    
   3576.8689    
   3546.4436    
   3494.1753    
   3443.6255    
   3404.2397    
   3363.7104    
   3310.0042    
   3258.0039    
   3232.7998    
   3176.0637    
   3111.9236    
   3056.0803    
   3014.7881    
   2958.3745    
   2906.1819    
   2861.9099    
   2825.4224    
   2802.8638    
   2766.6582    
   2726.9065    
   2688.5947    
   2639.4429    
   2586.9573    
   2537.2485    
   2508.3022    
   2479.4658    
   2466.2869    
   2455.5210    
   2409.0391    
   2377.0254    
   2340.4351    
   2300.5054    
   2285.2942    
   2275.9497    
   2251.4717    
   2222.4331    
   2187.7327    
   2173.8979    
   2152.0430    
   2135.9802    
   2114.2341    
   2091.4106    
   2070.9282    
   2048.2346    
   2049.3696    
   2030.1306    
   2007.5583    
   2009.8148    
   1985.0547    
   1964.8568    
   1955.8983    
   1948.0687    
   1943.5992    
   1921.2825    
   1911.2628    
   1912.3776    
   1900.1465    
   1909.0439    
   1909.0461    
   1885.7213    
   1877.9637    
   1897.9360    
   1899.0494    
   1882.4039    
   1879.0811    
   1892.3923    
   1884.6281    
   1896.8386    
   1903.5081    
   1911.2970    
   1919.0931    
   1941.4080    
   1936.9423    
   1930.2480    
   1936.9469    
   1947.0057    
   1951.4818    
   1945.8921    
   1967.1650    
   1995.2458    
   2007.6357    
   2034.7356    
   2050.5896    
   2048.3257    
   2071.0239    
   2084.6768    
   2102.9172    
   2115.4844    
   2156.7529    
   2193.6257    
   2214.4468    
   2237.6484    
   2274.9170    
   2298.3037    
   2326.4626    
   2364.1716    
   2411.5706    
   2435.3833    
   2485.6306    
   2530.1741    
   2574.9805    
   2627.3862    
   2688.7813    
   2753.1626    
   2819.3489    
   2894.9800    
   2972.6509    
   3027.8848    
   3114.7539    
   3198.6721    
   3291.5325    
   3392.3015    
   3483.4670    
   3579.8989    
   3711.3491    
   3843.6792    
   3968.1362    
   4113.9780    
   4277.8594    
   4428.2842    
   4583.3311    
   4748.0752    
   4928.0537    
   5110.7061    
   5311.7803    
   5539.8286    
   5765.6890    
   6006.1040    
   6254.3794    
   6556.0513    
