  11100 11  1   BR80     POSU   BMW  .000 U SI 022092 00.01   1        
  PROGRAM LAMBDA-9   VERSION 02.31                                     
  USER BMW DATE & TIME  1992 02 24 09.25 49.72    4.3900    295K P     
 AU1 TM 300     0     0 YLF             1.000000 - 1.400000 .00020     
 FILE NAME                                ON PC = BR80.DX              
 NO_POINTS  =  2001.    pts   DATA_INTV =  .000200 ˆm                  
 MIN_LAMBDA =  1.000000 ˆm     MIN_DATA =    .32380                    
 MAX_LAMBDA =  1.400000 ˆm     MAX_DATA =    .89600                    
 SCANSPEED  = 60.000000 NM/MIN SLITWIDTH=   .00000 ˆm                  
  RESP TIME =  1.0      sec SENSITIVITY = 5          DATE=92/02/20     
 VERTICAL POL. (E PARALLEL TO C-AXIS)                                  
  This spectra is part of Database LASERS
 Database LASERS was created by Pat Cross working 
 at NASA Langley Research Center, Internal Operations Group,
 Aerospace Electronics Systems Division, Remote Sensing 
 Technology Branch. phone:(757)864-1633   fax:(757)864-7894 
     e-mail p.l.cross@larc.nasa.gov 
     homepage http://aesd.larc.nasa.gov/laser/dbmain.htm
  EOH     (1X,F11.4)                                                   
  2001.         
    157.6674    
    150.7147    
    159.4138    
    165.5098    
    156.8099    
    159.4231    
    166.3895    
    162.0399    
    149.8678    
    140.3182    
    144.6616    
    145.5333    
    144.6678    
    146.4081    
    155.9715    
    159.4541    
    154.2383    
    155.1110    
    164.6853    
    176.0152    
    173.4030    
    162.9532    
    161.2158    
    176.0275    
    174.2871    
    176.9059    
    178.6530    
    170.8101    
    173.4276    
    173.4307    
    169.9479    
    163.8546    
    181.2891    
    188.2755    
    198.7663    
    201.3935    
    197.0238    
    197.9009    
    187.4179    
    175.2052    
    169.9785    
    164.7560    
    180.4471    
    182.1951    
    181.3259    
    181.3290    
    182.2043    
    178.7174    
    156.0760    
    143.9136    
    144.7845    
    161.3047    
    172.6294    
    169.1475    
    172.6355    
    170.0244    
    167.4142    
    147.4114    
    153.4980    
    163.0696    
    159.5921    
    148.2924    
    140.4809    
    150.0365    
    166.5675    
    156.9971    
    156.1308    
    152.6559    
    150.9204    
    147.4479    
    163.1030    
    163.9767    
    157.8883    
    167.4659    
    176.1834    
    173.5711    
    184.9145    
    178.8087    
    179.6842    
    157.9095    
    163.1333    
    170.9748    
    170.9778    
    177.0828    
    182.3198    
    184.9417    
    191.0579    
    182.3289    
    187.5700    
    181.4627    
    177.1039    
    177.9792    
    173.6225    
    179.7295    
    181.4777    
    184.9718    
    169.2778    
    168.4095    
    177.1280    
    178.8751    
    184.1138    
    178.8811    
    174.5244    
    178.0153    
    171.0441    
    161.4682    
    160.6009    
    166.6974    
    165.8300    
    166.7034    
    167.5775    
    158.8760    
    164.9711    
    152.7947    
    158.8850    
    169.3348    
    158.0209    
    159.7641    
    148.4644    
    145.8616    
    151.0770    
    160.6458    
    170.2266    
    178.9471    
    171.1040    
    158.9178    
    167.6253    
    169.3707    
    165.8898    
    161.5400    
    148.5002    
    155.4566    
    158.9387    
    145.9034    
    138.0944    
    147.6463    
    164.1720    
    158.9536    
    163.3073    
    157.2195    
    158.0925    
    165.0576    
    174.6439    
    165.9344    
    170.2921    
    170.2951    
    180.7605    
    176.4023    
    165.0784    
    164.2106    
    155.5131    
    160.7350    
    169.4450    
    159.0011    
    132.9498    
    129.4856    
    128.6224    
    139.8978    
    151.1900    
    145.1120    
    127.7676    
    132.1039    
    139.9126    
    139.9155    
    137.3157    
    147.7351    
    154.6907    
    144.2676    
    153.8276    
    151.2225    
    134.7315    
    142.5428    
    139.9420    
    142.5487    
    144.2882    
    143.4228    
    132.1481    
    113.9679    
    133.0206    
    143.4346    
    153.8629    
    146.9140    
    146.9169    
    147.7881    
    150.3979    
    146.9257    
    152.1417    
    142.5898    
    146.9345    
    153.8893    
    163.4608    
    160.8528    
    170.4336    
    162.5995    
    144.3469    
    150.4301    
    159.1276    
    160.0007    
    157.3934    
    153.0491    
    164.3607    
    166.1052    
    171.3343    
    149.5844    
    134.8311    
    146.9842    
    147.8554    
    151.3338    
    146.1243    
    140.0504    
    133.1142    
    132.2505    
    148.7417    
    148.7446    
    141.8005    
    132.2622    
    134.8661    
    134.0017    
    135.7388    
    134.8748    
    115.8236    
    121.0182    
    135.7504    
    147.9048    
    145.3023    
    144.4372    
    140.0998    
    129.6964    
    117.5768    
    136.6381    
    140.9794    
    149.6658    
    167.9368    
    166.1982    
    152.2815    
    143.5978    
    142.7324    
    145.3399    
    150.5551    
    156.6432    
    154.9067    
    156.6490    
    149.6976    
    149.7005    
    143.6238    
    134.9501    
    149.7092    
    165.3678    
    165.3707    
    156.6720    
    156.6749    
    144.5123    
    141.0429    
    146.2546    
    147.1261    
    153.2114    
    174.9770    
    176.7234    
    153.2200    
    141.9306    
    142.8016    
    149.7523    
    145.4119    
    142.8102    
    144.5497    
    131.5396    
    128.0761    
    128.0789    
    115.0970    
    107.3200    
    117.6978    
    122.0281    
    115.1085    
    115.9764    
    125.5004    
    135.0362    
    130.7042    
    114.2578    
    118.5861    
    117.7236    
    128.9827    
    136.7877    
    139.3931    
    137.6610    
    147.2121    
    148.0832    
    139.4045    
    148.0889    
    145.4863    
    135.0762    
    144.6241    
    149.8381    
    148.1032    
    151.5815    
    153.3230    
    153.3258    
    156.8066    
    168.1233    
    156.8123    
    142.9130    
    141.1802    
    136.8447    
    134.2459    
    133.3816    
    149.0061    
    143.7983    
    142.0647    
    137.7293    
    149.0175    
    145.5460    
    143.8125    
    144.6837    
    136.0084    
    123.0136    
    115.2281    
    123.8848    
    136.8872    
    145.5686    
    146.4400    
    124.7622    
    116.9753    
    119.5738    
    123.9046    
    123.9074    
    124.7763    
    128.2439    
    142.1213    
    134.3167    
    129.1190    
    126.5224    
    126.5252    
    122.1986    
    125.6651    
    126.5336    
    131.7357    
    130.0049    
    108.3739    
    110.1055    
    115.2958    
    118.7591    
    105.7934    
    106.6602    
    117.9021    
    139.5658    
    143.0402    
    137.8365    
    129.1696    
    120.5121    
    110.1364    
    108.4105    
    122.2520    
    126.5842    
    130.9194    
    127.4562    
    132.6589    
    126.5955    
    109.2944    
     88.5844    
     86.8634    
     95.4877    
    117.0878    
    132.6785    
    142.2225    
    137.0194    
    134.4206    
    139.6275    
    131.8255    
    121.4338    
    131.8311    
    135.3018    
    124.9054    
    112.7941    
    124.9110    
    138.7826    
    128.3814    
    113.6700    
    106.7582    
    103.3060    
     97.2665    
     92.0942    
    103.3144    
     99.0005    
     99.8665    
    106.7777    
    101.5989    
     99.0117    
    111.1065    
    108.5166    
    112.8414    
    112.8442    
    112.8470    
    114.5789    
    111.1232    
    100.7604    
     99.8999    
    113.7256    
    124.9778    
    130.1781    
    115.4634    
    118.9266    
    119.7949    
    127.5900    
    129.3258    
    122.3997    
    124.9999    
    122.4053    
    122.4080    
    130.2058    
    138.0121    
    136.2798    
    134.5485    
    138.0204    
    135.4213    
    137.1583    
    145.8397    
    149.3168    
    149.3196    
    155.4061    
    160.6278    
    149.3279    
    144.9883    
    151.9400    
    141.5215    
    142.3918    
    150.2106    
    150.2133    
    138.9294    
    128.5282    
    133.7309    
    135.4681    
    144.1475    
    144.1503    
    132.8754    
    125.0799    
    138.0838    
    137.2189    
    128.5530    
    138.0920    
    142.4331    
    136.3625    
    146.7798    
    139.8379    
    131.1690    
    131.1717    
    113.8608    
    123.3813    
    137.2491    
    146.7990    
    148.5387    
    134.6557    
    145.0707    
    137.2628    
    139.0008    
    133.7995    
    132.0687    
    149.4267    
    144.2188    
    147.6951    
    162.4777    
    172.0593    
    161.6128    
    165.0970    
    178.1695    
    175.5565    
    177.3028    
    183.4116    
    169.4649    
    159.8920    
    157.2854    
    149.4649    
    156.4211    
    152.9463    
    148.6042    
    155.5596    
    168.6156    
    172.1030    
    171.2342    
    165.1406    
    168.6264    
    167.7581    
    176.4748    
    174.7337    
    175.6083    
    176.4830    
    188.7015    
    183.4661    
    174.7473    
    171.2641    
    166.0413    
    166.0440    
    170.4014    
    175.6327    
    181.7402    
    185.2336    
    181.7456    
    171.2858    
    174.7744    
    180.0087    
    180.0114    
    180.8866    
    176.5291    
    169.5600    
    170.4339    
    186.1337    
    195.7446    
    177.4141    
    177.4168    
    175.6760    
    173.9351    
    163.4867    
    166.1008    
    170.4583    
    165.2354    
    168.7212    
    176.5669    
    180.0573    
    187.9147    
    176.5750    
    180.9379    
    188.7961    
    186.1796    
    181.8185    
    171.3587    
    162.6540    
    175.7219    
    187.9389    
    196.6782    
    201.0531    
    200.1811    
    196.6862    
    201.9361    
    209.8155    
    209.8182    
    209.8209    
    192.3304    
    194.0804    
    208.0780    
    214.2115    
    208.0834    
    193.2172    
    182.7422    
    180.9997    
    174.8984    
    175.7729    
    176.6475    
    187.1194    
    194.9839    
    201.9817    
    200.2347    
    199.3627    
    205.4892    
    208.1182    
    206.3699    
    191.5076    
    192.3840    
    195.0080    
    181.9124    
    176.6823    
    171.4553    
    171.4580    
    181.0506    
    183.6707    
    162.7585    
    163.6316    
    170.6005    
    182.8091    
    201.1576    
    210.7878    
    196.7906    
    194.1713    
    189.8057    
    188.0621    
    189.8111    
    187.1942    
    189.8164    
    185.4538    
    188.0754    
    200.3121    
    198.5661    
    192.4507    
    184.5942    
    189.8350    
    188.0914    
    180.2394    
    188.0967    
    193.3400    
    193.3426    
    198.5900    
    207.3413    
    209.0947    
    214.3530    
    213.4793    
    217.8639    
    221.3732    
    216.1159    
    213.4899    
    226.6453    
    238.0652    
    244.2227    
    245.1052    
    232.8016    
    234.5608    
    218.7666    
    231.0528    
    250.3985    
    254.8044    
    250.4038    
    243.3668    
    231.0660    
    230.1910    
    235.4633    
    236.3448    
    245.1396    
    251.3029    
    237.2311    
    229.3287    
    238.9945    
    249.5524    
    255.7198    
    248.6779    
    256.6057    
    258.3710    
    268.0738    
    271.6069    
    260.1414    
    242.5352    
    241.6583    
    268.9691    
    273.3857    
    258.3921    
    264.5661    
    275.1595    
    276.9291    
    281.3498    
    284.0052    
    290.2000    
    285.7789    
    296.4025    
    305.2671    
    313.2542    
    318.5850    
    310.5970    
    307.9382    
    309.7154    
    317.7071    
    318.5981    
    326.5992    
    329.2698    
    327.4939    
    332.8341    
    339.9597    
    346.2003    
    342.6377    
    358.6970    
    382.8487    
    392.7119    
    394.5084    
    405.2853    
    398.1034    
    392.7223    
    370.3333    
    373.0193    
    392.7302    
    418.7902    
    417.8926    
    408.0020    
    412.5002    
    427.8066    
    443.1439    
    442.2435    
    439.5381    
    439.5407    
    444.0575    
    444.0602    
    440.4513    
    445.8715    
    445.8741    
    444.9738    
    443.1700    
    445.8819    
    444.9817    
    451.3091    
    448.6000    
    444.9895    
    444.9921    
    455.8402    
    452.2257    
    458.5592    
    463.0873    
    464.9006    
    461.2818    
    465.8115    
    468.5315    
    466.7226    
    473.0681    
    479.4190    
    491.2252    
    497.5913    
    497.5939    
    489.4161    
    491.2356    
    508.5231    
    511.2584    
    513.0837    
    525.8553    
    527.6835    
    524.0347    
    524.9501    
    519.4785    
    513.0992    
    516.7480    
    535.9213    
    532.2686    
    523.1406    
    533.1876    
    544.1624    
    547.8260    
    541.4230    
    548.7469    
    549.6647    
    542.3456    
    538.6898    
    552.4205    
    552.4232    
    550.5936    
    549.6802    
    551.5148    
    563.4335    
    573.5338    
    573.5364    
    566.1937    
    558.8587    
    567.1168    
    566.2015    
    576.3055    
    572.6337    
    573.5544    
    571.7203    
    571.7229    
    575.3999    
    580.9171    
    597.4883    
    590.1224    
    597.4934    
    601.1829    
    601.1855    
    610.4128    
    616.8795    
    610.4180    
    611.3438    
    596.5898    
    594.7502    
    603.9697    
    631.6910    
    639.1018    
    636.3254    
    639.1069    
    642.8167    
    641.8927    
    644.6763    
    656.7421    
    655.8159    
    652.1055    
    655.8210    
    679.0742    
    674.4208    
    684.6698    
    673.4951    
    671.6366    
    680.9499    
    697.7408    
    722.0592    
    718.3157    
    709.8964    
    719.2573    
    725.8173    
    734.2589    
    728.6343    
    729.5741    
    739.8978    
    747.4155    
    736.1486    
    748.3607    
    771.8987    
    771.9012    
    782.2826    
    798.3528    
    801.1944    
    807.8254    
    808.7756    
    818.2586    
    830.6040    
    821.1101    
    827.7592    
    823.0138    
    817.3232    
    830.6168    
    850.5996    
    859.1810    
    858.2303    
    858.2328    
    868.7328    
    867.7803    
    878.2936    
    902.2383    
    904.1592    
    908.9608    
    926.2639    
    933.9683    
    932.0444    
    937.8273    
    951.3336    
    953.2670    
    954.2354    
    961.0015    
    975.5177    
    994.9147    
   1011.4415    
   1007.5527    
   1023.1329    
   1049.4948    
   1048.5198    
   1055.3704    
   1072.0294    
   1077.9193    
   1059.2939    
   1060.2754    
   1079.8909    
   1098.5725    
   1113.3538    
   1126.1885    
   1145.9746    
   1146.9678    
   1143.0089    
   1161.8467    
   1172.7751    
   1186.7062    
   1212.6439    
   1235.6628    
   1259.7573    
   1271.8348    
   1278.8898    
   1298.0681    
   1316.2817    
   1337.5858    
   1353.8586    
   1360.9902    
   1375.2710    
   1395.7177    
   1410.0640    
   1424.4374    
   1451.2014    
   1464.6205    
   1479.0977    
   1496.7136    
   1513.3307    
   1525.8185    
   1538.3269    
   1547.7219    
   1571.7814    
   1588.5637    
   1608.5411    
   1616.9700    
   1639.1356    
   1673.0355    
   1691.1075    
   1702.8253    
   1715.6289    
   1734.8732    
   1749.8752    
   1772.4327    
   1791.8217    
   1806.9368    
   1831.8330    
   1839.4279    
   1853.5507    
   1876.4187    
   1917.9734    
   1974.1025    
   2009.5348    
   2029.5393    
   2060.7612    
   2107.8347    
   2164.2576    
   2194.9026    
   2255.4165    
   2301.4097    
   2346.5227    
   2419.9675    
   2484.6714    
   2560.6638    
   2650.6968    
   2756.4883    
   2829.0813    
   2931.1387    
   3046.0266    
   3170.4341    
   3278.5286    
   3364.2693    
   3436.2441    
   3527.8596    
   3610.9956    
   3674.2964    
   3720.0361    
   3760.4604    
   3791.2712    
   3778.6555    
   3743.7153    
   3663.2649    
   3601.4294    
   3511.6370    
   3405.5356    
   3320.6548    
   3222.3772    
   3102.2529    
   2994.0996    
   2891.2041    
   2778.6235    
   2665.2681    
   2572.6794    
   2490.6587    
   2429.4265    
   2343.1309    
   2252.0737    
   2197.2771    
   2131.5879    
   2075.4121    
   2045.2507    
   1996.3517    
   1948.8667    
   1910.4347    
   1891.8391    
   1849.3457    
   1813.5760    
   1785.5121    
   1757.5514    
   1735.0435    
   1704.0692    
   1675.3448    
   1661.5540    
   1637.2152    
   1644.6177    
   1629.8273    
   1619.2805    
   1609.8019    
   1594.0282    
   1599.2860    
   1600.3395    
   1592.9850    
   1586.6873    
   1566.7727    
   1563.6354    
   1556.3163    
   1541.6968    
   1534.3988    
   1537.5291    
   1532.3188    
   1517.7455    
   1508.3928    
   1501.1268    
   1499.0535    
   1492.8333    
   1489.7262    
   1488.6924    
   1492.8407    
   1496.9913    
   1510.4904    
   1505.2993    
   1503.2249    
   1489.7437    
   1481.4601    
   1490.7852    
   1502.1965    
   1510.5077    
   1502.2014    
   1491.8311    
   1494.9438    
   1502.2089    
   1520.9185    
   1517.8000    
   1516.7628    
   1528.2140    
   1542.8124    
   1560.5760    
   1556.3956    
   1559.5349    
   1575.2418    
   1579.4376    
   1602.5448    
   1615.1791    
   1635.2258    
   1652.1489    
   1655.3281    
   1690.3632    
   1719.1490    
   1722.3563    
   1727.7036    
   1740.5486    
   1769.5256    
   1778.1346    
   1806.1757    
   1825.6503    
   1853.8669    
   1896.3890    
   1921.5795    
   1947.9541    
   1987.6875    
   2044.3340    
   2076.7351    
   2108.1506    
   2162.3088    
   2212.2957    
   2261.4661    
   2310.9573    
   2367.7493    
   2410.9175    
   2451.9790    
   2530.0171    
   2599.2646    
   2667.9390    
   2762.9314    
   2857.8865    
   2950.2744    
   3046.3445    
   3166.8735    
   3289.3459    
   3412.4927    
   3537.6685    
   3655.2883    
   3783.1641    
   3927.5037    
   4080.4678    
   4239.5537    
   4368.6616    
   4532.4224    
   4704.5386    
   4890.3706    
   5077.5396    
   5271.1445    
   5420.9634    
