  11100 11  1   BR76     POSU   BMW  .000 U SI 022092 00.01   1        
  PROGRAM LAMBDA-9   VERSION 02.31                                     
  USER BMW DATE & TIME  1992 02 24 09.14 37.54    4.3900    295K S     
 AU1 TM 300     0     0 YLF             1.500000 - 2.000000 .00020     
 FILE NAME                                ON PC = BR76.DX              
 NO_POINTS  =  2501.    pts   DATA_INTV =  .000200 ˆm                  
 MIN_LAMBDA =  1.500000 ˆm     MIN_DATA =    .52760                    
 MAX_LAMBDA =  2.000000 ˆm     MAX_DATA =    .93380                    
 SCANSPEED  = 60.000000 NM/MIN SLITWIDTH=   .00000 ˆm                  
  RESP TIME =  1.0      sec SENSITIVITY = 5          DATE=92/02/20     
 HORIZONTAL POL. (E PERPENDICULAR TO C-AXIS)                           
  This spectra is part of Database LASERS
 Database LASERS was created by Pat Cross working 
 at NASA Langley Research Center, Internal Operations Group,
 Aerospace Electronics Systems Division, Remote Sensing 
 Technology Branch. phone:(757)864-1633   fax:(757)864-7894 
     e-mail p.l.cross@larc.nasa.gov 
     homepage http://aesd.larc.nasa.gov/laser/dbmain.htm
  EOH     (1X,F11.4)                                                   
  2501.         
     48.3722    
     27.9641    
     23.0756    
     23.0778    
     38.5768    
     37.7624    
     27.9748    
     40.2166    
     33.6884    
     24.7206    
     36.1407    
     27.1700    
     14.1395    
      7.6342    
     23.1012    
     36.9677    
     32.0734    
     35.3393    
     31.2623    
     18.2248    
     24.7440    
     29.6373    
     36.1662    
     34.5364    
     24.7525    
     28.8302    
     32.0947    
     51.7005    
     57.4298    
     43.5302    
     33.7352    
     37.0018    
     49.2580    
     45.1731    
     44.3580    
     50.0817    
     59.0837    
     46.8159    
     46.0011    
     43.5515    
     42.7370    
     42.7391    
     37.0252    
     38.6598    
     55.0089    
     59.1029    
     65.6572    
     64.8399    
     69.7596    
     59.9303    
     58.2948    
     72.2257    
     64.0312    
     56.6645    
     53.3937    
     68.9546    
     72.2363    
     61.5847    
     64.0439    
     62.4081    
     56.6794    
     64.8697    
     64.8718    
     55.0494    
     64.8761    
     67.3364    
     60.7854    
     68.9801    
     72.2619    
     73.0838    
     60.7939    
     45.2540    
     46.8905    
     47.7101    
     46.8947    
     46.8968    
     46.8990    
     43.6324    
     32.2055    
     34.6557    
     45.2732    
     37.9243    
     46.9118    
     51.8198    
     57.5491    
     59.1881    
     50.1904    
     52.6459    
     41.2054    
     28.1516    
     37.1275    
     37.9456    
     44.4816    
     36.3175    
     42.8521    
     55.1176    
     58.3928    
     55.9398    
     55.1240    
     52.6715    
     32.2524    
     23.2865    
     33.8886    
     33.0747    
     37.9733    
     52.6843    
     51.0509    
     48.6002    
     47.7847    
     49.4221    
     40.4360    
     61.6999    
     64.1591    
     64.9806    
     55.1581    
     41.2630    
     30.6554    
     30.6576    
     42.9033    
     37.1893    
     24.1420    
     25.7744    
     27.4066    
     34.7495    
     30.6725    
     24.9678    
     30.6768    
     24.1570    
     30.6810    
     31.4989    
     32.3164    
     36.3986    
     38.0331    
     31.5075    
     41.3036    
     52.7483    
     47.0270    
     40.4936    
     44.5797    
     38.8646    
     44.5840    
     49.4904    
     45.4055    
     46.2250    
     61.7703    
     72.4262    
     71.6081    
     80.6354    
     80.6376    
     70.7945    
     60.1457    
     50.3291    
     56.0571    
     44.6117    
     46.2485    
     60.9753    
     56.0657    
     57.7049    
     56.0700    
     54.4359    
     51.9841    
     40.5449    
     54.4423    
     42.1824    
     51.9927    
     62.6343    
     65.0937    
     69.1935    
     81.5014    
     95.4740    
     88.0765    
     86.4355    
     80.6888    
     70.8457    
     65.9303    
     62.6556    
     84.8035    
     88.0915    
     72.4967    
     76.5999    
     74.1410    
     70.8628    
     67.5861    
     61.0351    
     56.1255    
     59.4016    
     68.4143    
     59.4059    
     50.4082    
     47.9577    
     50.4124    
     65.9666    
     61.8729    
     72.5287    
     63.5154    
     48.7881    
     51.2431    
     36.5396    
     43.0742    
     41.4424    
     43.0785    
     45.5316    
     42.2658    
     39.8180    
     42.2700    
     52.0803    
     66.8182    
     57.8118    
     60.2697    
     58.6342    
     70.1054    
     76.6684    
     66.0115    
     66.8332    
     60.2825    
     66.8375    
     57.8310    
     58.6513    
     66.8439    
     64.3877    
     81.6126    
     80.7936    
     72.5908    
     79.1559    
     87.3707    
     86.5510    
     75.8804    
     89.0204    
     87.3792    
     80.8108    
     82.4548    
     82.4569    
     94.7861    
    104.6645    
    101.3731    
    112.0840    
    109.6136    
    112.0883    
    103.8516    
    106.3244    
    117.0427    
    113.7460    
    124.4743    
    125.3023    
    134.3934    
    121.1786    
    115.4057    
    136.0533    
    130.2691    
    113.7631    
    100.5841    
    117.8908    
    127.7992    
    119.5455    
    126.9773    
    122.0255    
    111.3050    
    105.5396    
    123.6828    
    133.5987    
    120.3858    
    127.8185    
    125.3430    
    119.5669    
    126.1732    
    127.0009    
    135.2675    
    144.3701    
    147.6844    
    133.6201    
    119.5819    
    117.9337    
     96.5172    
     95.6966    
     94.0536    
     91.5891    
    108.0515    
    108.8773    
    127.0288    
    111.3543    
    108.0601    
    120.4308    
    101.4760    
    111.3629    
     94.8976    
    115.4893    
    113.8424    
    110.5471    
    132.8341    
    101.4910    
     82.5834    
     71.0984    
     82.5877    
     93.2724    
     92.4521    
    105.6211    
     94.9233    
     91.6363    
    103.9802    
    107.2769    
    111.3994    
     96.5794    
     89.1811    
     94.1158    
    103.9931    
    129.5649    
    118.0088    
    109.7658    
    104.0016    
    111.4187    
    117.1928    
    106.4788    
    114.7229    
     99.0735    
     94.1394    
    106.4874    
    127.1104    
    137.8578    
    128.7670    
    132.9007    
    126.2934    
    115.5666    
    134.5607    
    114.7465    
    113.9240    
    127.9558    
    132.9157    
    130.4386    
    122.1822    
    127.1383    
    113.1123    
    118.0625    
    139.5443    
    132.9307    
    146.9982    
    145.3440    
    158.6050    
    159.4362    
    152.8058    
    160.2702    
    151.1525    
    151.1547    
    151.1568    
    156.1324    
    156.1345    
    140.3997    
    149.5087    
    143.7144    
    150.3416    
    161.9512    
    163.6129    
    145.3784    
    137.9331    
    161.1300    
    155.3268    
    152.0135    
    172.7605    
    166.1180    
    163.6301    
    174.4288    
    187.7406    
    178.5900    
    158.6609    
    164.4709    
    141.2681    
    151.2063    
    170.2897    
    161.1601    
    152.8704    
    143.7617    
    161.1666    
    144.5934    
    139.6303    
    157.8551    
    140.4621    
    147.9142    
    151.2300    
    170.3134    
    165.3334    
    147.9228    
    153.7246    
    157.8723    
    152.0717    
    149.5883    
    148.7620    
    157.8809    
    156.2249    
    176.1517    
    181.1431    
    173.6626    
    166.1891    
    138.0170    
    148.7792    
    154.5816    
    167.0281    
    149.6142    
    145.4753    
    165.3743    
    152.1061    
    154.5946    
    152.1104    
    157.9154    
    154.6010    
    138.0428    
    157.0925    
    140.5289    
    143.0135    
    155.4409    
    154.6140    
    160.4208    
    145.5055    
    164.5743    
    170.3888    
    176.2077    
    184.5273    
    172.0565    
    182.8676    
    177.8789    
    182.8719    
    193.6978    
    187.0371    
    195.3690    
    182.8805    
    187.8763    
    193.7086    
    196.2107    
    202.8838    
    199.5497    
    223.7721    
    226.2841    
    223.7764    
    229.6364    
    219.5991    
    220.4375    
    216.2604    
    221.2782    
    230.4845    
    227.9754    
    248.0914    
    238.0297    
    242.2236    
    229.6580    
    217.9490    
    238.8766    
    239.7171    
    261.5457    
    253.1453    
    242.2388    
    248.1130    
    217.9641    
    225.4926    
    216.2971    
    222.9873    
    236.3842    
    243.9309    
    249.8064    
    217.1433    
    219.6531    
    216.3122    
    212.9723    
    233.8861    
    232.2130    
    234.7278    
    231.3802    
    238.9220    
    248.9891    
    242.2798    
    254.0306    
    255.7124    
    257.3951    
    254.8771    
    255.7189    
    260.7632    
    244.8109    
    261.6083    
    253.2080    
    243.1401    
    243.1423    
    232.2497    
    235.6024    
    223.0478    
    223.0500    
    228.9093    
    224.7276    
    234.7753    
    227.2421    
    244.0001    
    236.4577    
    235.6219    
    256.5980    
    239.8165    
    254.9225    
    243.1747    
    227.2594    
    226.4245    
    227.2637    
    254.9333    
    237.3174    
    224.7600    
    237.3217    
    233.9726    
    239.8403    
    233.9769    
    250.7498    
    238.1702    
    226.4483    
    235.6608    
    229.8006    
    226.4548    
    217.2579    
    231.4819    
    245.7321    
    238.1875    
    261.6927    
    249.0951    
    240.7086    
    254.9766    
    257.4989    
    259.1815    
    239.0410    
    260.8671    
    255.8271    
    234.8576    
    265.9186    
    277.7059    
    283.6075    
    269.2905    
    259.2010    
    260.0438    
    255.0048    
    283.6183    
    272.6682    
    260.8931    
    259.2140    
    269.3079    
    276.0453    
    267.6295    
    282.7908    
    269.3165    
    274.3693    
    295.4526    
    287.8591    
    285.3310    
    275.2202    
    287.8656    
    293.7751    
    281.9672    
    292.9351    
    276.9154    
    265.1338    
    277.7623    
    287.8808    
    292.1017    
    284.5115    
    302.2415    
    297.1745    
    287.8916    
    302.2480    
    293.8033    
    307.3249    
    303.0999    
    323.4154    
    307.3314    
    296.3471    
    320.8798    
    296.3515    
    290.4444    
    315.8047    
    331.0624    
    320.8907    
    302.2762    
    329.3721    
    321.7446    
    325.1370    
    335.3182    
    313.2826    
    317.5176    
    315.8264    
    332.7809    
    331.0863    
    328.5439    
    338.7297    
    308.2208    
    314.9927    
    324.3130    
    338.7384    
    342.1383    
    308.2316    
    320.0846    
    310.7738    
    326.0213    
    339.6008    
    324.3304    
    331.9648    
    345.5550    
    348.9579    
    337.0642    
    335.3682    
    353.2173    
    342.1666    
    352.3712    
    368.5546    
    379.6487    
    376.2362    
    359.1886    
    384.7796    
    377.0964    
    390.7671    
    411.3191    
    399.3268    
    407.8946    
    409.6107    
    425.0581    
    428.4968    
    429.3585    
    438.8203    
    418.1983    
    420.7753    
    421.6361    
    442.2713    
    447.4409    
    434.5319    
    433.6740    
    420.7883    
    415.6417    
    423.3689    
    424.2295    
    436.2650    
    445.7353    
    464.7093    
    463.8485    
    457.8092    
    471.6266    
    463.8550    
    467.3109    
    469.0410    
    475.0930    
    474.2304    
    478.5566    
    499.3472    
    490.6807    
    493.2824    
    491.5516    
    493.2867    
    497.6238    
    494.1580    
    505.4365    
    490.6959    
    493.2976    
    509.7848    
    508.9183    
    515.0022    
    517.6122    
    519.3538    
    509.7957    
    507.1927    
    513.2752    
    500.2540    
    508.0672    
    515.0197    
    528.0706    
    528.9436    
    509.8132    
    518.5059    
    513.2927    
    523.7292    
    530.6960    
    513.2992    
    521.1259    
    534.1873    
    553.3836    
    535.9343    
    520.2646    
    527.2282    
    509.8394    
    530.7157    
    529.8468    
    529.8490    
    545.5428    
    531.5956    
    560.3973    
    549.0409    
    561.2757    
    574.4064    
    560.4061    
    554.2902    
    550.7984    
    570.0368    
    560.4148    
    549.0583    
    563.0426    
    562.1700    
    570.9229    
    568.2988    
    573.5543    
    566.5531    
    562.1810    
    599.8831    
    603.4019    
    598.1301    
    613.0850    
    601.6501    
    600.7731    
    590.2342    
    608.6926    
    617.4997    
    606.0577    
    627.2004    
    631.6145    
    631.6166    
    628.0892    
    642.2198    
    636.9205    
    630.7427    
    650.1848    
    640.4608    
    637.8127    
    660.8161    
    667.9097    
    675.0094    
    668.8006    
    690.1194    
    677.6799    
    671.4689    
    698.1347    
    694.5762    
    715.0750    
    715.0772    
    717.7568    
    719.5449    
    701.7102    
    720.4418    
    711.5195    
    730.2753    
    741.9106    
    744.5997    
    745.4973    
    741.9171    
    776.9246    
    759.8526    
    755.3678    
    767.9396    
    758.9614    
    773.3378    
    776.0380    
    790.4468    
    785.0430    
    795.8604    
    830.2118    
    829.3084    
    820.2569    
    804.8933    
    820.2613    
    841.1025    
    837.4763    
    857.4554    
    851.0957    
    853.8237    
    875.6683    
    870.2042    
    870.2063    
    859.2870    
    862.0186    
    872.0344    
    875.6815    
    901.2468    
    898.5055    
    902.1653    
    903.0823    
    924.1522    
    927.8239    
    928.7440    
    930.5823    
    916.8264    
    928.7505    
    950.8125    
    954.4970    
    964.6362    
    968.3279    
    985.8799    
    983.1086    
   1008.1104    
   1036.9183    
   1031.3364    
   1019.2547    
   1022.0437    
   1027.6227    
   1020.1903    
   1027.6271    
   1063.0458    
   1071.4600    
   1090.1898    
   1112.7258    
   1124.0204    
   1124.9639    
   1121.2002    
   1144.7729    
   1142.8865    
   1171.2634    
   1206.4077    
   1213.0767    
   1214.0314    
   1206.4143    
   1225.4799    
   1243.6371    
   1248.4237    
   1284.8896    
   1292.5903    
   1290.6674    
   1293.5577    
   1318.6387    
   1336.0516    
   1340.8975    
   1368.0798    
   1361.2780    
   1368.0844    
   1393.4130    
   1393.4152    
   1397.3207    
   1385.6177    
   1408.0712    
   1432.5527    
   1454.1624    
   1469.9180    
   1459.0863    
   1469.9224    
   1495.5935    
   1507.4717    
   1515.4021    
   1526.3187    
   1561.1536    
   1572.1362    
   1569.1423    
   1573.1399    
   1576.1398    
   1607.1888    
   1616.2289    
   1639.3756    
   1641.3940    
   1636.3572    
   1655.5250    
   1663.6115    
   1671.7065    
   1687.9198    
   1712.3040    
   1722.4891    
   1727.5873    
   1764.3843    
   1770.5367    
   1762.3402    
   1772.5920    
   1751.0858    
   1775.6740    
   1801.3716    
   1812.7075    
   1832.3260    
   1853.0315    
   1866.5217    
   1902.9562    
   1888.3645    
   1900.8737    
   1918.6305    
   1911.3171    
   1937.4788    
   1956.3717    
   1974.2582    
   1985.8552    
   1985.8574    
   2004.8712    
   2009.1049    
   2037.7296    
   2049.4241    
   2074.9995    
   2103.8743    
   2108.1633    
   2135.0132    
   2122.1165    
   2132.8667    
   2182.5034    
   2209.6177    
   2229.2009    
   2249.9263    
   2277.2827    
   2280.5747    
   2288.2571    
   2334.5044    
   2345.5588    
   2375.4836    
   2401.0679    
   2449.1309    
   2480.5933    
   2488.4810    
   2524.6350    
   2538.2380    
   2571.2117    
   2613.4895    
   2652.5479    
   2686.0225    
   2692.9688    
   2739.4260    
   2774.4563    
   2812.0012    
   2858.0110    
   2878.1560    
   2911.4504    
   2930.5427    
   2955.6736    
   2983.2930    
   3001.3608    
   3047.3232    
   3052.1790    
   3066.7625    
   3086.2498    
   3111.9019    
   3140.0964    
   3129.0547    
   3148.7019    
   3130.2856    
   3099.6880    
   3105.8000    
   3082.6096    
   3074.0852    
   3050.9922    
   3040.0786    
   3008.6345    
   2973.7151    
   2958.1150    
   2900.7839    
   2854.5198    
   2813.2397    
   2772.1829    
   2746.4895    
   2688.4141    
   2659.5435    
   2598.6958    
   2532.6614    
   2526.9973    
   2491.9646    
   2438.0354    
   2375.5986    
   2339.0452    
   2310.3694    
   2277.4155    
   2270.8440    
   2222.8096    
   2158.8728    
   2117.9766    
   2108.3250    
   2082.6428    
   2027.2909    
   2001.8810    
   1952.3621    
   1918.8318    
   1906.2972    
   1893.7832    
   1867.7766    
   1826.3497    
   1821.1888    
   1789.2596    
   1759.5114    
   1760.5371    
   1728.8615    
   1718.6732    
   1692.2437    
   1662.8724    
   1628.5812    
   1610.4905    
   1635.6334    
   1595.4502    
   1566.4503    
   1580.4397    
   1561.4655    
   1548.5114    
   1531.6039    
   1521.6763    
   1490.9797    
   1469.2706    
   1461.3931    
   1437.8055    
   1435.8455    
   1432.9044    
   1431.9264    
   1428.0070    
   1415.2780    
   1426.0511    
   1414.3044    
   1400.6221    
   1395.7427    
   1386.9659    
   1379.1740    
   1357.7819    
   1370.4186    
   1360.7001    
   1349.0533    
   1361.6761    
   1345.1788    
   1342.2732    
   1347.1228    
   1364.6003    
   1354.8892    
   1341.3135    
   1353.9229    
   1327.7637    
   1320.0321    
   1341.3224    
   1342.2932    
   1341.3268    
   1337.4540    
   1342.2999    
   1333.5854    
   1326.8147    
   1339.3999    
   1325.8519    
   1318.1218    
   1312.3302    
   1346.1930    
   1354.9270    
   1352.0172    
   1357.8441    
   1324.9004    
   1314.2742    
   1328.7734    
   1334.5820    
   1322.9760    
   1316.2147    
   1350.0948    
   1356.8907    
   1355.9220    
   1348.1617    
   1325.8898    
   1339.4423    
   1345.2590    
   1346.2310    
   1330.7356    
   1332.6730    
   1351.0874    
   1348.1797    
   1339.4579    
   1345.2747    
   1344.3079    
