  11100 11  1   BR78     POSU   BMW  .000 U SI 022092 00.01   1        
  PROGRAM LAMBDA-9   VERSION 02.31                                     
  USER BMW DATE & TIME  1992 02 24 09.20 30.87    4.3900    295K P     
 AU1 TM 300     0     0 YLF             1.500000 - 2.000000 .00020     
 FILE NAME                                ON PC = BR78.DX              
 NO_POINTS  =  2501.    pts   DATA_INTV =  .000200 ˆm                  
 MIN_LAMBDA =  1.500000 ˆm     MIN_DATA =    .07270                    
 MAX_LAMBDA =  2.000000 ˆm     MAX_DATA =    .93030                    
 SCANSPEED  = 60.000000 NM/MIN SLITWIDTH=   .00000 ˆm                  
  RESP TIME =  1.0      sec SENSITIVITY = 5          DATE=92/02/20     
 VERTICAL POL. (E PARALLEL TO C-AXIS)                                  
  This spectra is part of Database LASERS
 Database LASERS was created by Pat Cross working 
 at NASA Langley Research Center, Internal Operations Group,
 Aerospace Electronics Systems Division, Remote Sensing 
 Technology Branch. phone:(757)864-1633   fax:(757)864-7894 
     e-mail p.l.cross@larc.nasa.gov 
     homepage http://aesd.larc.nasa.gov/laser/dbmain.htm
  EOH     (1X,F11.4)                                                   
  2501.         
    102.0020    
    116.9218    
    114.4358    
    127.7186    
    118.5881    
    109.4686    
    114.4448    
     91.2623    
     97.0541    
     95.4015    
     97.0586    
    111.1395    
    115.2877    
    128.5715    
    109.4888    
    104.5198    
    104.5220    
    105.3527    
    116.1302    
    109.4999    
    119.4534    
    117.7964    
    103.7077    
    102.0536    
     89.6468    
    121.9549    
    130.2627    
    118.6396    
    113.6647    
    116.1549    
    144.4120    
    130.2739    
    128.6140    
    124.4635    
     97.9399    
    106.2215    
    114.5120    
    136.9385    
    126.1354    
    111.2022    
    117.8389    
    112.0358    
    122.8228    
    120.3349    
    116.1885    
    121.9997    
    120.3417    
    141.1205    
    133.6368    
    129.4831    
    134.4724    
    100.4608    
    102.9466    
    117.8680    
    134.4813    
    137.8103    
    127.0065    
    133.6570    
    122.0288    
    126.1825    
    131.1696    
    132.8345    
    136.9945    
    125.3608    
    136.9990    
    132.8434    
    137.0035    
    135.3421    
    118.7315    
    132.0210    
    129.5301    
    130.3635    
    116.2512    
    105.4781    
    123.7249    
    118.7471    
    128.7126    
    128.7148    
    121.2434    
    117.0965    
    103.8376    
    120.4200    
    103.8420    
    115.4467    
    126.2385    
    103.0206    
    116.2825    
    116.2848    
    119.6057    
    117.9487    
    109.6590    
    116.2937    
    106.3491    
    107.1799    
    109.6679    
    107.1844    
    115.4759    
    122.9460    
    141.2347    
    137.0774    
    124.6136    
    112.9994    
     99.7472    
    109.6881    
    104.7191    
     98.9262    
     95.6188    
     89.0065    
    107.2135    
     98.1079    
    101.4204    
     95.6300    
     99.7696    
    109.7105    
    111.3702    
    120.4962    
    109.7172    
    112.2060    
    116.3542    
    109.7239    
    127.9807    
    122.1700    
    118.0226    
    113.8775    
     98.1415    
    101.4540    
    100.6288    
    103.1146    
    119.6953    
    109.7463    
    104.7774    
     99.8122    
    111.4105    
    106.4410    
    108.9287    
    115.5632    
    108.1044    
    118.8860    
    119.7177    
    115.5722    
    110.5994    
     94.0431    
     91.5648    
     83.3039    
    108.1224    
    116.4147    
    101.5011    
     99.0202    
     98.1953    
    113.9357    
    108.1358    
    112.2822    
    132.2070    
    119.7513    
    130.5494    
    136.3710    
    140.5324    
    129.7250    
    120.5925    
    118.9353    
    120.5970    
    128.0726    
    126.4132    
    104.8513    
    114.7987    
    113.1428    
    117.2914    
    103.2043    
    109.8337    
    137.2342    
    112.3248    
    128.0950    
    134.7457    
    129.7609    
    128.9321    
    133.9213    
    123.1230    
    103.2267    
    104.8849    
    121.4697    
    108.2030    
     94.9600    
     78.4374    
     96.6187    
    109.0407    
    127.2955    
    143.0967    
    114.0209    
    104.9073    
    123.1521    
    140.6086    
    132.2943    
    107.4018    
    111.5472    
    114.8660    
    131.4720    
    142.2867    
    123.1701    
    142.2912    
    128.9881    
    137.3037    
    147.2931    
    154.7949    
    152.2966    
    128.1689    
    130.6637    
    134.8219    
    136.4875    
    128.1779    
    111.5831    
    125.6901    
    129.0150    
    120.7136    
    123.2059    
    117.3990    
    124.0408    
    113.2571    
    133.1840    
    131.5236    
    119.8992    
    124.8825    
     96.7038    
    132.3638    
    141.5148    
    134.8622    
    117.4237    
    106.6494    
    144.8534    
    144.0230    
    135.7051    
    146.5252    
    143.1976    
    142.3674    
    123.2508    
    135.7163    
    135.7186    
    150.7038    
    172.4005    
    153.2082    
    148.2113    
    141.5529    
    139.0591    
    140.7251    
    139.8957    
    149.8884    
    141.5641    
    137.4068    
    144.0656    
    131.5908    
    135.7500    
    126.6105    
    129.1047    
    138.2517    
    146.5768    
    151.5775    
    130.7758    
    136.5974    
    139.9271    
    142.4257    
    146.5902    
    130.7870    
    142.4324    
    133.2849    
    144.9341    
    172.4610    
    161.6080    
    168.2885    
    149.1073    
    175.8131    
    164.1210    
    151.6134    
    168.2997    
    154.9519    
    159.9576    
    172.4834    
    179.1735    
    180.8483    
    159.9666    
    175.8356    
    168.3177    
    159.9733    
    163.3132    
    153.3069    
    156.6438    
    154.1450    
    170.8368    
    173.3461    
    170.0063    
    172.5148    
    158.3254    
    171.6837    
    177.5366    
    176.7026    
    170.8548    
    155.0012    
    180.8910    
    173.3686    
    167.5228    
    175.8804    
    170.8683    
    172.5418    
    169.2023    
    176.7251    
    175.0556    
    164.1995    
    187.6086    
    180.9156    
    193.4760    
    197.6686    
    210.2567    
    208.5799    
    185.1108    
    180.0925    
    171.7353    
    180.9336    
    203.5556    
    190.9830    
    192.6605    
    181.7793    
    182.6178    
    180.1105    
    184.2961    
    190.1588    
    170.0871    
    174.2668    
    185.1422    
    187.6557    
    203.5825    
    198.5520    
    193.5254    
    190.1767    
    191.8540    
    213.6682    
    201.0789    
    206.1156    
    194.3770    
    193.5411    
    206.1223    
    202.7681    
    200.2541    
    165.9497    
    180.1576    
    197.7449    
    201.1014    
    200.2653    
    183.5131    
    184.3523    
    178.4986    
    182.6829    
    200.2766    
    198.6014    
    212.0310    
    212.8729    
    211.1954    
    206.1605    
    202.8063    
    229.7013    
    212.8841    
    220.4506    
    224.6585    
    220.4551    
    224.6630    
    217.9375    
    233.0854    
    228.0354    
    215.4230    
    229.7238    
    224.6765    
    228.8863    
    218.7940    
    227.2076    
    222.1615    
    207.0399    
    237.3201    
    223.8508    
    232.2700    
    238.1697    
    244.9177    
    246.6070    
    231.4367    
    239.8648    
    249.9896    
    239.8693    
    258.4401    
    249.1521    
    252.5314    
    245.7816    
    240.7232    
    264.3691    
    270.2943    
    273.6825    
    255.0789    
    265.2240    
    268.6104    
    250.0188    
    258.4670    
    253.4007    
    266.9274    
    257.6291    
    250.8744    
    264.3961    
    268.6284    
    273.7094    
    261.8661    
    260.1779    
    267.7911    
    256.8020    
    276.2618    
    287.2836    
    293.2262    
    298.3237    
    289.8356    
    293.2329    
    275.4282    
    298.3326    
    290.6933    
    277.9761    
    300.0389    
    293.2464    
    289.0049    
    283.9182    
    284.7685    
    289.8603    
    276.2978    
    289.0161    
    286.4734    
    294.9622    
    306.8622    
    303.4633    
    327.3054    
    307.7191    
    313.6777    
    320.4930    
    300.9248    
    323.0538    
    319.6476    
    323.9108    
    323.0606    
    315.3964    
    323.0651    
    335.0086    
    341.8431    
    320.5155    
    331.6016    
    351.2541    
    338.4352    
    338.4375    
    334.1712    
    329.9068    
    323.9400    
    319.6814    
    340.1572    
    328.2101    
    336.7456    
    323.0988    
    321.3969    
    335.8985    
    331.6331    
    342.7359    
    318.8501    
    329.9338    
    359.8516    
    358.9978    
    360.7127    
    355.5777    
    363.2871    
    355.5822    
    353.0172    
    362.4369    
    347.8892    
    351.3126    
    350.4593    
    354.7397    
    365.8759    
    348.7557    
    358.1707    
    356.4604    
    355.6070    
    364.1733    
    347.9117    
    359.0383    
    353.0487    
    364.1823    
    368.4705    
    361.6167    
    366.7602    
    365.0485    
    383.0690    
    381.3531    
    371.0565    
    377.9229    
    376.2087    
    389.9557    
    372.7809    
    387.3808    
    403.7317    
    398.5677    
    426.1652    
    419.2591    
    414.9467    
    405.4662    
    387.3966    
    409.7795    
    410.6440    
    422.7260    
    426.1832    
    430.5060    
    441.7542    
    434.8340    
    447.8210    
    427.0586    
    429.6532    
    453.0277    
    454.7644    
    459.1035    
    451.3009    
    455.6380    
    455.6403    
    451.3077    
    469.5341    
    466.9304    
    480.8421    
    473.8867    
    466.9371    
    465.2021    
    448.7237    
    459.9984    
    464.3409    
    473.9002    
    490.4380    
    485.2147    
    497.4159    
    488.7027    
    486.0923    
    489.5784    
    502.6589    
    514.8882    
    507.0281    
    525.3889    
    525.3912    
    514.8972    
    516.6481    
    527.1490    
    537.6639    
    535.9132    
    542.0533    
    556.1034    
    554.3484    
    564.0217    
    562.2644    
    566.6658    
    557.8728    
    545.5787    
    561.3943    
    562.2756    
    567.5573    
    564.9197    
    562.2824    
    584.3049    
    588.7191    
    592.2526    
    586.9589    
    579.0234    
    587.8454    
    603.7493    
    621.4595    
    613.4879    
    601.9878    
    606.4123    
    622.3546    
    658.7915    
    655.2314    
    652.5631    
    665.0363    
    664.1469    
    683.7856    
    681.1072    
    670.3961    
    664.1559    
    676.6486    
    692.7397    
    688.2692    
    699.0101    
    682.9103    
    684.6998    
    702.5994    
    710.6696    
    734.0267    
    723.2407    
    722.3445    
    736.7328    
    725.9430    
    734.0380    
    742.1412    
    759.2744    
    763.7914    
    759.2789    
    768.3129    
    766.5081    
    782.7908    
    789.1338    
    797.2960    
    798.2056    
    810.9203    
    830.0313    
    817.2891    
    821.8407    
    820.9327    
    815.4772    
    840.0712    
    831.8676    
    832.7808    
    820.9440    
    829.1404    
    842.8198    
    840.9973    
    862.9286    
    867.5077    
    863.8484    
    863.8507    
    865.6832    
    897.7917    
    884.9349    
    879.4331    
    886.7753    
    868.4410    
    893.2079    
    909.7648    
    932.8195    
    932.8217    
    930.9774    
    954.0967    
    941.1443    
    950.3977    
    957.8083    
    955.9579    
    964.3019    
    976.3688    
    997.7640    
    992.1794    
    997.7686    
   1010.8220    
   1018.2917    
   1040.7423    
   1044.4924    
   1038.8734    
   1039.8124    
   1052.9382    
   1074.5505    
   1072.6709    
   1084.9120    
   1065.1538    
   1058.5808    
   1067.0383    
   1074.5641    
   1112.2958    
   1114.1892    
   1121.7618    
   1139.7736    
   1132.1880    
   1151.1749    
   1160.6874    
   1174.9775    
   1171.1670    
   1168.3110    
   1191.2096    
   1185.4814    
   1192.1698    
   1206.5193    
   1218.0190    
   1242.9917    
   1250.6938    
   1264.1897    
   1271.9135    
   1273.8475    
   1281.5806    
   1281.5829    
   1314.5311    
   1318.4188    
   1334.9561    
   1340.8027    
   1339.8309    
   1336.9103    
   1330.0979    
   1367.1682    
   1382.8319    
   1384.7946    
   1375.9805    
   1383.8188    
   1413.2782    
   1409.3462    
   1423.1271    
   1429.0420    
   1427.0730    
   1448.7894    
   1459.6721    
   1477.5123    
   1493.4055    
   1477.5168    
   1492.4156    
   1495.4014    
   1497.3927    
   1511.3344    
   1512.3334    
   1535.2946    
   1542.2982    
   1561.3370    
   1560.3359    
   1570.3757    
   1590.4917    
   1597.5465    
   1619.7565    
   1626.8385    
   1633.9270    
   1655.2280    
   1677.6077    
   1696.9891    
   1695.9701    
   1701.0798    
   1720.5214    
   1732.8263    
   1749.2639    
   1754.4091    
   1762.6481    
   1770.8959    
   1786.3826    
   1797.7603    
   1773.9969    
   1800.8700    
   1802.9429    
   1820.5706    
   1846.5681    
   1854.9070    
   1893.5880    
   1915.6309    
   1926.1511    
   1939.8491    
   1937.7424    
   1936.6912    
   1947.2406    
   1978.9725    
   1981.0952    
   2000.2048    
   2034.2947    
   2030.0276    
   2053.5410    
   2068.5427    
   2091.1001    
   2116.9624    
   2120.2031    
   2142.9148    
   2131.0132    
   2142.9192    
   2161.3550    
   2184.1899    
   2210.3718    
   2223.4971    
   2260.8064    
   2261.9089    
   2260.8110    
   2290.5701    
   2311.5828    
   2340.4307    
   2358.2383    
   2395.0974    
   2398.4590    
   2396.2219    
   2427.6418    
   2438.8962    
   2482.9421    
   2503.3589    
   2513.5894    
   2537.5100    
   2561.5063    
   2598.2175    
   2612.0320    
   2638.5774    
   2669.8574    
   2674.5044    
   2704.7673    
   2715.2720    
   2739.8376    
   2762.1328    
   2772.7180    
   2815.1982    
   2832.9705    
   2869.8296    
   2922.4529    
   2951.3127    
   2994.8074    
   3008.1487    
   3045.8696    
   3062.9675    
   3081.3298    
   3126.8108    
   3126.8130    
   3151.5117    
   3178.7737    
   3232.3401    
   3278.7373    
   3301.4128    
   3348.2344    
   3359.6694    
   3406.8535    
   3441.4709    
   3463.3494    
   3491.7563    
   3515.0779    
   3573.6941    
   3599.8923    
   3619.6016    
   3668.4338    
   3696.2905    
   3746.9573    
   3792.5798    
   3826.3020    
   3845.2529    
   3857.4609    
   3903.7544    
   3953.0798    
   4013.8047    
   4062.4580    
   4076.4177    
   4112.8311    
   4149.4194    
   4217.4316    
   4267.4121    
   4303.3154    
   4362.5645    
   4387.2686    
   4445.7129    
   4507.5674    
   4562.4785    
   4622.2920    
   4668.9751    
   4763.2070    
   4836.9731    
   4902.1118    
   4967.8145    
   5037.2607    
   5091.3628    
   5176.4731    
   5272.3540    
   5352.9155    
   5454.4146    
   5560.6851    
   5616.9517    
   5703.0044    
   5818.1069    
   5906.4834    
   6022.9316    
   6133.8623    
   6233.4346    
   6364.4834    
   6469.0610    
   6612.0767    
   6757.8379    
   6892.2690    
   6983.9141    
   7101.6074    
   7297.6372    
   7433.3677    
   7595.9580    
   7773.4644    
   7943.5869    
   8143.8198    
   8332.3281    
   8558.3369    
   8775.6992    
   8956.8398    
   9197.0537    
   9419.6592    
   9683.9932    
   9915.5439    
  10135.7373    
  10378.5098    
  10599.5576    
  10902.3779    
  11196.3408    
  11424.5303    
  11732.1973    
  12013.0205    
  12292.2539    
  12582.1494    
  12905.8662    
  13151.1191    
  13481.3037    
  13851.7705    
  14177.5703    
  14479.3926    
  14765.1123    
  15091.7461    
  15408.1699    
  15693.0625    
  16138.0820    
  16459.4551    
  16589.0098    
  16892.6250    
  17122.7363    
  17424.5938    
  17705.2383    
  17961.7871    
  18128.8672    
  18474.4805    
  18615.3594    
  18691.5781    
  18905.2090    
  19074.5039    
  19288.9844    
  19351.3945    
  19268.2988    
  19237.3730    
  19196.3320    
  19094.6855    
  19024.3359    
  19094.6895    
  19155.5176    
  18934.8359    
  18826.8555    
  18778.2773    
  18739.6387    
  18739.6406    
  18568.1504    
  18391.2383    
  18290.6699    
  18227.3594    
  18191.4160    
  18014.2109    
  17806.8828    
  17638.3320    
  17514.3301    
  17497.9512    
  17336.0488    
  17138.4082    
  16870.0781    
  16772.7813    
  16735.6895    
  16757.9258    
  16698.7813    
  16581.8535    
  16488.1582    
  16283.2168    
  16124.5234    
  15995.8848    
  15751.4619    
  15584.2959    
  15426.9570    
  15303.3926    
  15127.7207    
  14909.3311    
  14782.3955    
  14629.4561    
  14551.3516    
  14446.6221    
  14300.2344    
  14125.0664    
  13938.4736    
  13701.5693    
  13481.4688    
  13281.6436    
  13096.1006    
  12968.8682    
  12888.1885    
  12698.8506    
  12454.9316    
  12267.7510    
  12133.3604    
  11997.3408    
  11820.9814    
  11656.2031    
  11465.2930    
  11275.4600    
  11153.8574    
  11009.7627    
  10892.3086    
  10783.3994    
  10586.6035    
  10410.8486    
  10283.2344    
  10157.7285    
  10000.6611    
   9885.7070    
   9760.6455    
   9620.1943    
   9482.2949    
   9358.0498    
   9252.3604    
   9134.5117    
   9034.5508    
   8946.4941    
   8781.1680    
   8642.2695    
   8568.7129    
   8478.3809    
   8381.7188    
   8237.7842    
   8156.0630    
   8061.0332    
   7981.1821    
   7876.7715    
   7785.1528    
   7687.8799    
   7580.7480    
   7499.1865    
   7418.4932    
   7342.9419    
   7283.0386    
   7145.7695    
   7081.1675    
   7023.2866    
   6959.7144    
   6874.4243    
   6784.0923    
   6708.6401    
   6604.6401    
   6527.0830    
   6467.5166    
   6397.0273    
   6344.1167    
   6250.5386    
   6217.1323    
   6139.7480    
   6045.0186    
   5998.0947    
   5921.1191    
   5859.0356    
   5790.4497    
   5745.0684    
   5705.1484    
   5625.9307    
   5557.7114    
   5490.0991    
   5418.0815    
   5363.2729    
   5307.2139    
   5253.1958    
   5228.7700    
   5175.3062    
   5091.8149    
   5001.3379    
