  11100 12  1   LUAG1    PUC    BMW  .000 U SI 021293 00.01   1        
  PROGRAM LAMBDA-9   VERSION 02.31                                     
  USER BMW DATE & TIME  1993 02 12 10.13 28.70    9.9300    295K U     
 AU1 HO  50     0     0 LUAG            1.750000 - 2.200000 .00020     
 FILE NAME                                ON PC = LUAG1.SP             
 NO_POINTS  =  2251.    pts   DATA_INTV =  .000200 æm                  
 MIN_LAMBDA =  1.750000 æm     MIN_DATA =    .53830                    
 MAX_LAMBDA =  2.200000 æm     MAX_DATA =    .86230                    
 SCANSPEED  = 15.000000 NM/MIN SLITWIDTH=   .00000 æm                  
  RESP TIME =   .5      sec SENSITIVITY = 5          DATE=93/02/12     
 10:32:57    93/02/12                                                  
  LUAG1                                                                
  This spectra is part of Database LASERS
 Database LASERS was created by Pat Cross working 
 at NASA Langley Research Center, Internal Operations Group,
 Aerospace Electronics Systems Division, Remote Sensing 
 Technology Branch. phone:(757)864-1633   fax:(757)864-7894 
     e-mail p.l.cross@larc.nasa.gov 
     homepage http://aesd.larc.nasa.gov/laser/dbmain.htm
  EOH     (1X,F11.4)                                                   
  2251.         
    172.7702    
    165.7233    
    139.6693    
    266.0510    
    173.1341    
    206.5631    
    128.1592    
    204.3615    
    183.0178    
    152.1858    
    100.0548    
    185.6703    
    128.7050    
    164.4377    
    185.9432    
    119.4840    
    186.1251    
    155.2909    
     67.6210    
    179.2573    
    100.9645    
     65.5269    
    136.7377    
    115.4672    
    191.6156    
    213.1489    
    232.3199    
    275.4063    
    244.4363    
    239.7521    
    204.0705    
    139.9317    
     75.9956    
    199.5791    
    102.2378    
     69.1672    
    123.7675    
     48.0603    
    138.1929    
    164.4241    
    178.7871    
    188.3989    
    169.4526    
    198.1061    
    164.8787    
    162.5915    
    124.6768    
    131.8882    
     94.0303    
     77.5415    
     84.7376    
     80.0914    
    220.3732    
    127.6870    
    199.1062    
    192.0531    
    266.0904    
    242.2981    
    237.6163    
    197.1787    
    228.2548    
    218.8068    
    159.3829    
    171.3619    
    121.5667    
    131.1504    
    162.1242    
    152.7077    
    143.2957    
    126.7678    
    117.3681    
    115.0867    
    165.0460    
    181.7872    
    143.8411    
     82.2731    
    148.7730    
    139.3633    
    127.5857    
    170.4388    
    161.0190    
     99.4001    
    137.4443    
    151.7854    
    187.5475    
    230.5270    
    256.8727    
    280.8610    
    273.7798    
    207.0525    
    230.9814    
    238.2290    
    171.6202    
    226.4832    
    181.3171    
    186.1665    
    167.2270    
    138.8073    
    112.7979    
    150.8630    
    105.8675    
    103.5878    
    153.5118    
     99.0291    
    203.6503    
     68.4310    
     89.8270    
    182.4982    
    108.9638    
    123.2845    
    125.7467    
    125.8376    
    106.9577    
    206.8502    
     90.5537    
    195.1242    
    192.8354    
    190.5455    
    243.0685    
    145.5543    
    257.5730    
    198.0504    
    217.1987    
    179.1926    
    222.1468    
    181.7536    
    167.5756    
    243.8858    
    224.8944    
    117.9841    
    120.4469    
    113.4240    
    187.1473    
    184.8596    
    135.0467    
    144.6322    
     90.1830    
    154.3145    
    206.7383    
    171.1326    
     83.4433    
    121.4458    
    116.7943    
    147.7337    
    143.0760    
    131.2984    
    190.7986    
    152.8479    
    200.5022    
    253.0436    
    245.9743    
    234.1362    
    203.2468    
    212.8652    
    234.4085    
    222.5775    
    239.3613    
    170.3903    
    222.8498    
    258.7258    
    275.5380    
    180.2638    
    168.4666    
    123.4430    
    161.5184    
    178.2496    
    107.1199    
    123.8061    
    216.6083    
    159.5957    
    221.5566    
    159.7772    
    228.8889    
    171.8426    
    122.0694    
    155.3895    
    169.7372    
    105.7481    
    134.2938    
    215.2251    
    136.8487    
    163.0612    
    220.2621    
    277.6254    
    270.5483    
    172.9315    
    265.9531    
    287.5498    
    192.2305    
    235.1998    
    278.2605    
    211.5489    
    280.8323    
    216.4954    
    202.2957    
    214.2942    
    181.0627    
    140.7649    
    228.8638    
    255.1938    
    190.9408    
    169.6282    
    207.7843    
    293.7846    
    219.8749    
    200.9141    
    222.4395    
     89.5238    
    175.0182    
    206.0377    
    194.2263    
    113.5733    
    215.8363    
    177.8482    
    154.1768    
    266.1953    
    237.6491    
    237.7398    
    278.4119    
    249.8486    
    266.6488    
    226.1836    
    254.8929    
    193.0270    
    216.9247    
    259.9396    
    295.8707    
    212.4322    
    169.7001    
    219.7608    
    186.5239    
    217.5594    
    186.7052    
    193.9338    
    184.5092    
    167.9595    
    182.3121    
    180.0246    
    196.7656    
    254.0489    
    132.8005    
    204.1789    
    218.5568    
    144.9368    
    209.2117    
    206.9211    
    171.3322    
    192.8235    
    219.1008    
    259.7282    
    281.3135    
    238.4392    
    257.6130    
    269.6410    
    155.4287    
    267.4340    
    193.6394    
    250.9077    
    217.6249    
    229.6289    
    239.2550    
    170.3165    
    215.6053    
    225.2247    
    222.9338    
    258.7913    
    199.3038    
    163.7331    
     90.3199    
    199.5757    
    156.8789    
    104.7982    
    223.6589    
    150.0286    
    221.4574    
    214.4031    
    286.0587    
    267.0413    
    212.2934    
    255.2880    
    229.1486    
    184.0129    
    120.0100    
    217.5085    
    165.2737    
    239.1360    
    203.4964    
    239.3172    
    325.4193    
    289.6269    
    268.2192    
    361.6382    
    251.6949    
    196.9924    
    211.3619    
    163.8947    
    168.7354    
    133.2221    
    109.6122    
    154.7587    
    109.7933    
    183.4485    
    228.7586    
    257.4624    
    319.6874    
    341.3300    
    205.3083    
    245.8973    
    238.8353    
    186.5496    
    267.6432    
    251.0303    
    201.0932    
    198.8042    
    220.3168    
    220.4074    
    261.0266    
    237.2664    
    280.3066    
    268.4584    
    168.5348    
    256.7064    
    249.6411    
    199.7098    
    280.8500    
    266.6143    
    290.5881    
    326.5574    
    288.3806    
    255.0462    
    231.2945    
    188.5420    
    286.3531    
    202.9950    
    191.1918    
    260.3605    
    222.3091    
    222.3996    
    234.4021    
    253.5659    
    248.8857    
    332.6145    
    282.4799    
    239.6207    
    184.9650    
    208.8400    
    204.1720    
    142.4945    
    168.6945    
    249.7005    
    228.3411    
    276.1302    
    280.9977    
    336.0945    
    369.7413    
    312.3413    
    295.6945    
    396.4179    
    317.3983    
    288.7974    
    257.8528    
    238.8678    
    265.1914    
    224.7533    
    241.5217    
    294.1189    
    222.6445    
    201.3140    
    227.5880    
    268.2104    
    230.1514    
    225.4774    
    220.8059    
    292.4543    
    273.4376    
    256.8246    
    381.3304    
    273.7091    
    379.1125    
    391.2044    
    328.9608    
    305.1283    
    305.2188    
    178.9886    
    279.1169    
    272.0455    
    281.6862    
    420.7634    
    303.3720    
    339.3526    
    401.8069    
    308.4246    
    353.9994    
    361.2807    
    201.3782    
    299.2238    
    275.4283    
    232.5945    
    142.3657    
    123.4943    
    166.2765    
    273.4931    
    266.4243    
    316.6848    
    311.9924    
    283.4051    
    396.0489    
    345.7721    
    429.8781    
    413.1374    
    295.8018    
    310.2339    
    418.2156    
    305.6336    
    298.5522    
    346.4957    
    270.0772    
    368.2466    
    385.1301    
    411.6382    
    418.9392    
    445.4915    
    525.1766    
    566.3929    
    515.6927    
    556.8907    
    583.6244    
    559.4912    
    574.1126    
    579.0481    
    559.7625    
    559.8530    
    581.7430    
    718.0032    
    857.6475    
    892.1626    
   1085.1343    
   1274.9530    
   1540.1421    
   1816.5966    
   1971.8782    
   2293.8950    
   2460.8906    
   2471.6250    
   2559.7419    
   2434.5769    
   2278.5239    
   2121.0574    
   1848.3533    
   1683.9640    
   1518.3677    
   1241.1329    
   1173.7333    
   1019.6950    
    940.6946    
    985.2354    
    901.4468    
    810.6510    
    815.6430    
    717.9138    
    627.9432    
    603.7618    
    574.7637    
    470.9659    
    490.3442    
    394.1809    
    339.1326    
    432.8071    
    425.6835    
    466.6884    
    442.7014    
    421.1472    
    587.7830    
    563.6498    
    592.8112    
    607.4520    
    580.8735    
    583.3873    
    622.2856    
    590.8384    
    622.4664    
    545.0168    
    535.4355    
    634.8792    
    610.6919    
    673.9662    
    693.5380    
    693.6284    
    793.8552    
    936.4591    
   1030.4695    
   1119.9431    
   1177.3484    
   1347.8499    
   1466.5730    
   1547.8361    
   1690.7703    
   1899.2848    
   2049.9531    
   2299.1370    
   2436.8906    
   2650.6240    
   2888.3682    
   2940.1409    
   3016.6362    
   3044.0845    
   2986.7659    
   3003.2417    
   2842.7810    
   2654.0305    
   2432.4810    
   2289.6704    
   2095.5667    
   2093.0449    
   1924.1117    
   1906.0839    
   1932.0636    
   1805.6177    
   1906.3549    
   1942.6978    
   1888.4336    
   1873.0215    
   1829.2517    
   1816.4594    
   1770.2427    
   1575.9794    
   1497.3300    
   1431.6162    
   1310.7841    
   1268.2218    
   1138.4028    
   1041.6077    
   1123.6466    
   1056.6630    
   1046.8352    
   1176.2427    
   1133.9640    
   1146.5067    
   1311.6871    
   1374.6683    
   1501.1299    
   1628.3892    
   1823.3279    
   2051.4114    
   2253.1365    
   2555.5061    
   2905.9304    
   3210.0515    
   3755.6211    
   4226.1973    
   4675.3501    
   5210.8018    
   5570.6982    
   5698.4121    
   5855.2422    
   6010.1299    
   6108.7705    
   6153.5283    
   6294.6431    
   6391.4575    
   6714.0698    
   6932.0820    
   7239.9287    
   7443.2954    
   7641.8545    
   7911.9722    
   7926.0083    
   7717.9194    
   7515.3804    
   6959.3804    
   6360.1577    
   5872.5171    
   5267.6357    
   4698.2134    
   4260.4077    
   4009.1472    
   3851.9404    
   3857.7300    
   3854.9705    
   3889.2808    
   4041.2058    
   4142.1953    
   4150.9575    
   4052.9827    
   4061.7063    
   3898.3860    
   3648.7671    
   3519.5500    
   3305.0325    
   2983.3430    
   2806.8640    
   2471.6882    
   2262.7327    
   2218.1211    
   2009.1692    
   1967.7095    
   1972.9896    
   1869.5533    
   1980.9557    
   2017.4202    
   1994.1201    
   2200.4651    
   2268.8999    
   2379.8884    
   2547.4771    
   2574.2827    
   2700.4138    
   2757.0774    
   2765.2620    
   2868.1672    
   2963.4221    
   2876.4868    
   2920.0435    
   2760.3154    
   2615.2349    
   2604.6130    
   2404.9038    
   2391.7451    
   2238.7712    
   2191.5945    
   2217.9302    
   2257.4534    
   2310.2405    
   2379.0447    
   2549.2813    
   2667.1870    
   3005.7888    
   3253.1794    
   3615.9292    
   4129.1934    
   4721.1914    
   5423.2764    
   6013.9063    
   6427.2412    
   7011.8364    
   7419.1685    
   7751.7783    
   8163.9209    
   8405.3506    
   8747.5244    
   8831.3164    
   8944.7734    
   9136.4727    
   9177.3301    
   9147.7646    
   9059.1426    
   8653.9541    
   8278.0342    
   7725.2271    
   7177.1138    
   6646.7993    
   6203.5723    
   5794.9678    
   5508.5693    
   5296.4380    
   5016.9980    
   4923.7666    
   4720.6523    
   4513.6802    
   4419.8184    
   4279.7974    
   4097.4570    
   4016.9949    
   3885.4446    
   3882.6819    
   3754.8391    
   3644.7053    
   3636.3420    
   3538.0671    
   3367.8604    
   3379.0737    
   3284.8127    
   3081.0679    
   3001.8357    
   2928.3547    
   2833.4707    
   2739.0342    
   2615.5601    
   2669.2800    
   2482.2852    
   2532.9829    
   2573.1179    
   2637.4460    
   2774.7229    
   2788.3137    
   2986.5454    
   3203.2810    
   3391.7354    
   3509.0540    
   3711.7092    
   3882.1733    
   3919.3696    
   4036.9326    
   3999.7014    
   3994.0547    
   3954.0408    
   3894.1238    
   3874.2512    
   3825.9431    
   3732.4131    
   3633.6831    
   3434.7864    
   3163.4077    
   3012.7305    
   2717.3230    
   2535.2361    
   2270.3792    
   2092.2759    
   2001.2600    
   1895.1464    
   1725.4440    
   1717.8503    
   1656.5729    
   1669.4329    
   1641.4410    
   1582.9404    
   1608.4847    
   1674.9025    
   1623.9517    
   1621.4927    
   1731.4685    
   1675.2628    
   1711.1591    
   1724.0531    
   1726.7052    
   1783.2344    
   1775.6177    
   1837.4358    
   1788.6427    
   1763.0529    
   1835.1299    
   1812.0538    
   1771.0234    
   1843.1281    
   1925.8372    
   1967.3650    
   2144.5198    
   2384.0266    
   2492.9216    
   2812.1846    
   3026.9907    
   3352.1199    
   3612.1333    
   3824.3098    
   4061.7424    
   4211.9678    
   4212.0576    
   4418.9624    
   4451.2852    
   4515.9956    
   4634.1113    
   4699.4116    
   4800.6973    
   4935.5107    
   4914.5850    
   5004.8979    
   5026.0986    
   4881.8740    
   4938.9639    
   4879.0576    
   4837.2563    
   4831.3677    
   4499.5225    
   4650.0830    
   4579.2231    
   4635.4624    
   4688.8901    
   4819.9600    
   4957.8994    
   5460.3604    
   5780.5249    
   6172.8208    
   6677.4312    
   7081.0820    
   7561.3066    
   8028.7251    
   8428.5010    
   8887.4678    
   9104.3477    
   9249.0303    
   9361.0576    
   9305.1016    
   9182.4365    
   8851.4941    
   8486.4590    
   8099.7920    
   7696.2827    
   7429.4653    
   7089.1167    
   6787.3262    
   6603.8691    
   6535.5557    
   6383.3931    
   6409.3179    
   6303.0542    
   6133.5015    
   6149.5356    
   6016.0942    
   5808.1201    
   5711.2212    
   5463.1509    
   5178.5474    
   5054.3936    
   4832.1621    
   4600.5376    
   4518.0947    
   4430.1313    
   4568.3433    
   4701.5737    
   4985.6592    
   5350.3027    
   5706.0586    
   6087.2773    
   6763.1621    
   7088.1143    
   7568.4175    
   7896.2920    
   7920.7466    
   7868.6621    
   7726.8291    
   7205.9575    
   6694.9453    
   6075.4619    
   5406.7290    
   5032.2192    
   4537.5527    
   4233.7529    
   3974.5149    
   3676.2141    
   3513.3545    
   3329.6084    
   3078.9500    
   2831.3733    
   2581.4619    
   2339.8938    
   2197.9414    
   2077.8179    
   1922.1782    
   1808.8262    
   1680.7761    
   1629.8367    
   1627.3796    
   1579.1176    
   1536.0441    
   1569.1328    
   1450.1722    
   1617.6403    
   1569.4026    
   1594.9131    
   1702.1238    
   1658.7860    
   1820.2822    
   1939.0459    
   2115.8577    
   2410.4429    
   2575.4280    
   2784.9019    
   3084.0261    
   3246.3564    
   3560.8721    
   3653.7197    
   3617.2185    
   3637.0034    
   3730.2019    
   3654.0796    
   3578.2461    
   3410.6338    
   3247.1658    
   3128.8843    
   3035.8674    
   3022.3025    
   3044.2466    
   3118.2678    
   3369.5544    
   3579.0554    
   3827.6624    
   4137.0029    
   4174.6406    
   4299.4253    
   4483.6118    
   4460.2300    
   4454.4575    
   4250.3936    
   4131.8628    
   3919.6072    
   3831.4038    
   3625.0911    
   3504.5842    
   3437.6777    
   3426.6228    
   3479.7048    
   3527.3262    
   3648.1472    
   3891.8926    
   4118.4331    
   4461.5786    
   4864.4424    
   5220.6470    
   5685.8218    
   6114.1914    
   6470.7109    
   6813.8716    
   7009.3286    
   7116.1787    
   7019.4927    
   6650.1357    
   6271.3857    
   5692.8628    
   5088.1099    
   4571.6206    
   4039.3188    
   3487.1780    
   3190.5620    
   2849.4797    
   2583.4021    
   2386.8120    
   2213.0896    
   2186.9749    
   2194.9224    
   2200.2534    
   2234.4377    
   2358.2783    
   2368.9355    
   2592.2266    
   2764.0496    
   2874.9297    
   2991.8735    
   2986.5142    
   3104.1082    
   3225.1492    
   3244.5481    
   3335.9182    
   3408.2166    
   3430.5776    
   3525.5940    
   3567.7041    
   3506.1936    
   3419.7983    
   3154.3987    
   2957.6428    
   2754.7107    
   2434.1619    
   2336.4102    
   1991.2612    
   1767.0024    
   1700.5270    
   1545.3036    
   1381.2030    
   1434.1924    
   1311.0652    
   1308.6478    
   1336.3298    
   1213.7997    
   1276.3577    
   1273.9447    
   1314.1102    
   1445.0032    
   1424.9139    
   1553.9918    
   1691.5634    
   1709.5437    
   1786.4885    
   2008.5341    
   2026.7981    
   2024.2902    
   1990.6458    
   1858.9338    
   1799.8643    
   1735.8475    
   1605.7889    
   1466.4602    
   1272.9691    
   1153.3197    
   1126.0708    
    994.9474    
    962.9838    
    913.8583    
    847.6996    
    806.1888    
    694.1404    
    672.3622    
    679.7383    
    643.4219    
    609.5922    
    583.0707    
    525.2222    
    566.3344    
    467.6295    
    429.2954    
    525.5814    
    403.1014    
    434.3645    
    422.4586    
    355.5078    
    463.4504    
    511.6619    
    492.4892    
    540.7683    
    521.5694    
    499.9795    
    642.6145    
    560.4361    
    591.9423    
    645.3076    
    596.9588    
    650.3383    
    589.8828    
    597.2281    
    657.8850    
    691.9720    
    641.0875    
    718.9041    
    743.3449    
    721.5179    
    799.6451    
    763.1169    
    726.6550    
    797.4708    
    721.9667    
    756.1606    
    707.5469    
    714.9357    
    788.1494    
    834.6896    
    751.7330    
    793.3039    
    766.5438    
    830.1548    
    827.7973    
    744.8709    
    759.5866    
    762.1138    
    711.0567    
    801.3506    
    708.8035    
    679.7290    
