  11100 11  1 03T25.SP   PWP031 TLL  .000 # SI 081688 00.01   1        
  PROGRAM PE-CONVERT VERSION 02.30                                     
  USER TLL DATE & TIME  1988 08 17 14.18 55.98    4.8400    295K #     
 AU1 HO 200     0     0 YAG             1.700000 - 2.250000 .00020     
 FILE NAME ON PE-3600 = 003T25.SP         ON PC = 003T0025.SP          
 NO_POINTS  =  2751.    pts   DATA_INTV =  .000200 æm                  
 MIN_LAMBDA =  1.700000 æm     MIN_DATA =    .00050                    
 MAX_LAMBDA =  2.250000 æm     MAX_DATA =  12600.00                    
 SCANSPEED  = .03000000 æm/min SLITWIDTH=   .00020 æmITA =   0.        
       RESP =    .500   sec        ISMS =   0.       DATE=88/08/16     
       INST = 509.                    ? =   0.                         
 HO:YAG(2%HO);.5SEC. RES.;SAMPLE CODE WP031                            
  This spectra is part of Database LASERS
 Database LASERS was created by Pat Cross working 
 at NASA Langley Research Center, Internal Operations Group,
 Aerospace Electronics Systems Division, Remote Sensing 
 Technology Branch. phone:(757)864-1633   fax:(757)864-7894 
     e-mail p.l.cross@larc.nasa.gov 
     homepage http://aesd.larc.nasa.gov/laser/dbmain.htm
  EOH     (1X,F11.4)                                                   
  2751.         
     83.4614    
     89.9664    
     92.9399    
     90.2574    
     92.5230    
     89.1355    
     89.9870    
     89.4266    
     87.4510    
     85.4767    
     79.9723    
     84.3564    
     82.3828    
     83.2347    
     80.5544    
     79.2894    
     80.8454    
     79.5803    
     83.2558    
     84.8132    
     87.7846    
     87.9301    
     90.9014    
     91.7545    
     91.1924    
     87.8046    
     88.6575    
     88.8030    
     88.9485    
     93.3334    
     89.2394    
     87.9718    
     86.7044    
     86.8499    
     86.9954    
     82.9043    
     78.1099    
     74.7272    
     85.4591    
     83.4861    
     87.8682    
     90.8396    
     90.2776    
     93.2504    
     93.3959    
     97.0747    
     97.2202    
     91.0049    
     93.2701    
     93.4156    
     95.6821    
     97.9474    
     97.3859    
     89.0535    
     90.6117    
     92.1684    
     88.7835    
     86.1042    
     82.7197    
     82.1602    
     84.4232    
     89.5107    
     93.1864    
     94.0393    
     95.5971    
     95.7425    
    100.8359    
     98.8605    
     96.1788    
     92.7931    
     95.7638    
     97.3226    
     97.4680    
     94.7860    
     87.1642    
     89.4270    
     83.9273    
     84.0727    
     84.9231    
     84.3635    
     87.3315    
     85.3593    
     91.8580    
     95.5344    
     99.2128    
     95.8252    
     92.4396    
     95.4103    
     96.2613    
     97.8198    
     96.5521    
     94.5791    
     95.4300    
     92.7511    
     92.8964    
     93.7480    
     88.2450    
     94.0388    
     93.4779    
     92.2110    
     93.7687    
     94.6203    
     96.1782    
     98.4420    
    103.5339    
    108.6265    
    103.1170    
    103.2623    
     97.7559    
    103.5530    
    107.2328    
    101.7245    
     99.0445    
     96.3645    
     97.9225    
     99.4806    
    103.1570    
    103.3024    
     99.2094    
     95.1181    
     98.0882    
    101.0582    
    101.9092    
    100.6433    
    102.9073    
    105.8785    
    108.8513    
    107.5828    
     95.7209    
    100.1025    
    101.6606    
    102.5115    
     99.8321    
     97.1527    
     97.2980    
     99.5618    
    100.4134    
     97.7339    
     99.2915    
     97.3193    
     96.7578    
     96.9031    
    104.1100    
    103.5496    
    103.6949    
    106.6655    
    108.9301    
    110.4890    
    112.7551    
    111.4865    
    108.0978    
    109.6565    
    106.9760    
    113.4816    
    112.2129    
    110.2377    
    108.9695    
    111.9419    
    115.6221    
    115.0595    
    108.8448    
    107.5761    
    107.7214    
    111.3999    
    115.0796    
    111.6905    
    114.6632    
    113.3946    
    117.0748    
    115.8060    
    116.6574    
    120.3386    
    115.5348    
    118.5074    
    115.8253    
    115.2636    
    116.8228    
    109.1947    
    115.6994    
    110.1908    
    111.0435    
    114.0146    
    109.9209    
    110.0661    
    110.2114    
    111.7697    
    112.6215    
    108.5287    
    112.2054    
    109.5247    
    114.6158    
    119.0014    
    119.8528    
    115.0515    
    113.0768    
    113.2220    
    114.7796    
    114.9248    
    117.1911    
    112.3898    
    114.6547    
    119.7466    
    121.3050    
    116.5037    
    109.5849    
    113.9668    
    113.4063    
    115.6712    
    115.1098    
    112.4290    
    117.5201    
    119.0789    
    120.6370    
    122.9023    
    119.5145    
    114.7131    
    119.0972    
    115.7092    
    119.3876    
    118.1193    
    119.6780    
    117.7039    
    117.8491    
    120.1135    
    123.7932    
    119.6980    
    117.7232    
    121.4019    
    120.1335    
    121.6922    
    121.8374    
    124.8094    
    127.7813    
    128.6346    
    126.6590    
    129.6322    
    127.6556    
    124.9734    
    125.1186    
    118.9030    
    120.4622    
    115.6629    
    118.6328    
    117.3651    
    123.8697    
    126.1346    
    126.9868    
    123.5975    
    115.9727    
    118.9432    
    123.3270    
    124.1780    
    123.6173    
    123.0549    
    126.7340    
    126.1722    
    127.0243    
    127.1694    
    126.6076    
    123.2199    
    124.7783    
    123.5101    
    123.6552    
    115.3260    
    121.8258    
    119.1462    
    121.4104    
    119.4365    
    118.8753    
    119.7267    
    124.8162    
    124.2547    
    127.2257    
    132.3194    
    126.8100    
    126.2475    
    132.0468    
    132.1918    
    131.6308    
    131.7758    
    129.0941    
    131.3591    
    127.9708    
    130.9423    
    133.2075    
    131.2325    
    127.1378    
    126.5763    
    130.9609    
    130.3999    
    125.5985    
    127.1566    
    120.2392    
    123.2090    
    119.8241    
    123.4992    
    126.4689    
    125.9084    
    130.9980    
    136.0917    
    135.5288    
    137.7944    
    131.5783    
    127.4844    
    127.6295    
    127.0689    
    126.5068    
    120.2980    
    121.1482    
    118.4705    
    125.6751    
    125.1139    
    120.3173    
    120.4624    
    122.7254    
    124.2809    
    124.4260    
    123.1605    
    126.8355    
    125.5681    
    129.2447    
    131.5084    
    136.5998    
    138.1588    
    131.2361    
    134.2085    
    135.7671    
    131.6712    
    133.2302    
    129.1372    
    134.2261    
    132.9587    
    132.3963    
    131.8357    
    128.4498    
    131.4201    
    135.8038    
    132.4158    
    133.9738    
    136.2388    
    134.9705    
    135.1155    
    138.7934    
    146.0078    
    140.4972    
    143.4696    
    139.3734    
    145.1741    
    148.8559    
    141.9292    
    137.1263    
    133.0330    
    135.2965    
    135.4415    
    137.0005    
    131.4948    
    130.9336    
    130.3716    
    126.9881    
    131.3686    
    130.1013    
    123.8950    
    128.2740    
    123.4793    
    131.3864    
    132.2384    
    133.0896    
    132.5284    
    134.7921    
    134.9371    
    139.3201    
    136.6398    
    129.7237    
    131.2807    
    132.1308    
    133.6881    
    133.1261    
    136.0968    
    129.8875    
    131.4435    
    132.2954    
    128.9107    
    131.1733    
    127.7891    
    131.4632    
    130.9022    
    132.4582    
    140.3703    
    141.9293    
    140.6602    
    140.0995    
    140.2444    
    140.3894    
    137.7096    
    137.8546    
    135.8800    
    140.9691    
    143.9395    
    139.1406    
    135.0492    
    140.1360    
    140.2809    
    141.8387    
    141.2780    
    137.1843    
    130.2727    
    131.1225    
    134.0906    
    138.4710    
    137.2036    
    135.9364    
    138.1987    
    137.6383    
    140.6080    
    141.4592    
    136.6609    
    139.6302    
    136.2456    
    137.8025    
    137.9474    
    133.8577    
    133.2961    
    138.3821    
    142.7633    
    145.0266    
    141.6405    
    138.9617    
    139.1066    
    140.6619    
    135.8667    
    137.4233    
    143.2161    
    146.1857    
    146.3305    
    148.5951    
    151.5668    
    152.4177    
    151.8566    
    144.2302    
    144.3751    
    143.8137    
    144.6648    
    141.2797    
    142.8350    
    144.3931    
    145.2442    
    148.2138    
    142.7092    
    142.8540    
    141.5868    
    145.2623    
    142.5834    
    146.9645    
    145.6968    
    147.2542    
    150.2231    
    151.7820    
    154.0461    
    152.0717    
    143.7421    
    148.8288    
    146.1493    
    145.5872    
    149.9706    
    143.0543    
    148.1412    
    141.9314    
    146.3113    
    148.5756    
    158.6116    
    165.1202    
    163.1430    
    156.9262    
    159.8978    
    160.7489    
    160.1875    
    163.1590    
    168.2555    
    171.2300    
    172.7904    
    176.4750    
    176.6198    
    176.0566    
    174.7854    
    172.0989    
    171.5368    
    170.2663    
    165.4600    
    163.4841    
    171.4084    
    170.1380    
    169.5761    
    167.5978    
    167.0361    
    171.4247    
    171.5695    
    166.0551    
    176.8126    
    169.8813    
    174.9794    
    182.9111    
    188.0145    
    188.1593    
    186.8860    
    190.5742    
    187.8850    
    186.6126    
    183.2163    
    176.9894    
    175.7186    
    177.2789    
    174.5936    
    174.0307    
    174.1755    
    173.6127    
    172.3424    
    172.4872    
    174.0470    
    172.0701    
    167.9722    
    171.6514    
    178.8713    
    181.8478    
    183.4078    
    184.2616    
    189.3631    
    193.7589    
    192.4870    
    188.3804    
    188.5251    
    179.4670    
    172.5372    
    174.0966    
    171.4113    
    171.5560    
    169.5802    
    173.9673    
    176.9418    
    174.9650    
    171.5733    
    173.1325    
    169.7424    
    170.5933    
    170.0318    
    175.8333    
    180.2225    
    190.2780    
    187.5904    
    199.7786    
    200.6324    
    197.2324    
    194.5432    
    191.1462    
    192.7078    
    198.5210    
    196.5393    
    193.1419    
    191.1614    
    191.3061    
    190.0343    
    188.7626    
    188.9073    
    184.0980    
    184.9497    
    185.0944    
    184.5321    
    183.9682    
    184.8215    
    190.6292    
    197.8564    
    212.8911    
    220.1334    
    217.4386    
    220.4228    
    217.0189    
    217.1636    
    216.5975    
    211.7759    
    211.2102    
    204.9732    
    199.4478    
    197.4667    
    199.7372    
    202.7169    
    207.8230    
    207.2594    
    205.9858    
    204.0036    
    201.3138    
    201.4585    
    198.0611    
    197.4964    
    204.0188    
    210.5435    
    224.8812    
    231.4194    
    231.5641    
    226.7358    
    224.0394    
    218.5051    
    228.5906    
    223.0539    
    222.4885    
    215.5370    
    204.3370    
    205.8992    
    199.6661    
    199.8107    
    205.6234    
    205.7681    
    207.3304    
    201.0986    
    205.4940    
    204.9299    
    210.0359    
    215.8536    
    205.3638    
    210.4697    
    220.5441    
    228.4971    
    231.4832    
    233.7594    
    231.0620    
    241.1555    
    249.1235    
    249.9806    
    244.4341    
    238.1790    
    231.2192    
    226.3933    
    230.7981    
    227.3925    
    239.6138    
    239.7584    
    235.6393    
    235.0724    
    248.7249    
    259.5448    
    259.6894    
    261.9717    
    262.8279    
    271.5234    
    280.9405    
    283.2254    
    283.3700    
    279.9470    
    290.7988    
    307.3827    
    319.6943    
    329.1538    
    332.8819    
    338.0479    
    351.8318    
    360.5999    
    368.6563    
    386.0836    
    407.1490    
    424.6404    
    452.3111    
    474.9642    
    514.4352    
    575.3206    
    649.1237    
    734.6292    
    843.4202    
    975.4649    
   1133.2026    
   1301.2506    
   1466.4720    
   1630.3107    
   1780.2767    
   1923.2463    
   2065.6743    
   2198.9211    
   2294.8271    
   2336.6594    
   2335.9336    
   2283.9995    
   2207.3755    
   2122.7903    
   2021.1543    
   1900.4719    
   1744.9675    
   1579.6373    
   1406.5714    
   1248.8859    
   1118.2919    
    986.2770    
    871.0202    
    768.2449    
    696.1348    
    636.3271    
    582.7363    
    528.6957    
    483.6570    
    453.3065    
    433.8956    
    414.5198    
    403.8368    
    401.0952    
    396.9129    
    401.3842    
    382.0710    
    373.5800    
    370.8479    
    373.1505    
    371.1369    
    377.0355    
    379.3400    
    373.0082    
    370.2765    
    376.1750    
    384.2370    
    387.9818    
    401.0986    
    417.8432    
    423.7679    
    435.4826    
    457.3560    
    465.4788    
    473.6086    
    483.1967    
    505.8980    
    533.7603    
    574.8873    
    627.9640    
    675.3880    
    731.2155    
    785.8475    
    846.0355    
    909.6049    
    995.6888    
   1090.1992    
   1183.2449    
   1240.3151    
   1311.8655    
   1369.6492    
   1434.9264    
   1490.9980    
   1536.9081    
   1574.1350    
   1595.2976    
   1606.7783    
   1600.4438    
   1597.3499    
   1588.5957    
   1582.2719    
   1571.1084    
   1553.5082    
   1552.8477    
   1577.1941    
   1601.5994    
   1629.3069    
   1679.9037    
   1743.0519    
   1811.5433    
   1882.9849    
   1939.8536    
   1979.3884    
   2019.9159    
   2047.0701    
   2062.4395    
   2045.6694    
   2026.3961    
   2009.6854    
   1988.7990    
   1936.1360    
   1897.8928    
   1863.9408    
   1832.5852    
   1798.8486    
   1766.0463    
   1735.8077    
   1722.0220    
   1709.8918    
   1683.8969    
   1648.2079    
   1611.0231    
   1559.4540    
   1508.9437    
   1454.6918    
   1399.9301    
   1344.6699    
   1288.1349    
   1234.2522    
   1186.0903    
   1149.7646    
   1122.0618    
   1112.9397    
   1105.3695    
   1098.5759    
   1107.9727    
   1128.1917    
   1170.1586    
   1221.6478    
   1285.9434    
   1393.3701    
   1539.6539    
   1708.4503    
   1926.6971    
   2194.9648    
   2508.2854    
   2874.3201    
   3292.7856    
   3752.7917    
   4185.2837    
   4711.8188    
   5270.0845    
   5782.3398    
   6237.3428    
   6719.9370    
   7185.8130    
   7586.6865    
   7931.8276    
   8231.8682    
   8501.3662    
   8695.7725    
   8823.6855    
   8871.1328    
   8801.2168    
   8640.2432    
   8384.5977    
   8042.6836    
   7630.2305    
   7191.8569    
   6755.3477    
   6326.3203    
   5915.6426    
   5526.5889    
   5199.6753    
   4898.3652    
   4629.4253    
   4412.8667    
   4221.5820    
   4086.1013    
   3991.0322    
   3941.3616    
   3920.2297    
   3919.3618    
   3926.5925    
   3949.0405    
   3973.5713    
   3999.1787    
   4037.1250    
   4080.3474    
   4109.3105    
   4123.8955    
   4092.0930    
   4051.1609    
   4004.2695    
   3938.3113    
   3855.6660    
   3767.6936    
   3685.4119    
   3597.8953    
   3501.3958    
   3396.1692    
   3264.4319    
   3136.2327    
   3009.6084    
   2880.8611    
   2760.0300    
   2669.2417    
   2591.6951    
   2525.3311    
   2476.9731    
   2449.0017    
   2418.4824    
   2409.8821    
   2417.8962    
   2447.8240    
   2484.8799    
   2539.7529    
   2602.0386    
   2690.7129    
   2766.5723    
   2834.7910    
   2896.1309    
   2957.8357    
   3029.1838    
   3103.8301    
   3187.4934    
   3292.7585    
   3433.7834    
   3615.9636    
   3859.5671    
   4147.2275    
   4467.6196    
   4858.9976    
   5301.5522    
   5708.4404    
   6180.9790    
   6718.5015    
   7288.3203    
   7869.1416    
   8453.1416    
   8999.1182    
   9455.6201    
   9816.2402    
  10048.0137    
  10154.8496    
  10142.0586    
  10008.2637    
   9768.7588    
   9432.4648    
   9051.7998    
   8646.2598    
   8279.1543    
   7924.6567    
   7615.1323    
   7344.1548    
   7114.4883    
   6923.5728    
   6766.7124    
   6659.5425    
   6563.9170    
   6501.5703    
   6449.9253    
   6408.8247    
   6337.1826    
   6235.6353    
   6095.0713    
   5926.8926    
   5751.7534    
   5568.8589    
   5393.8149    
   5221.6924    
   5067.0688    
   4923.6372    
   4808.5767    
   4705.6885    
   4631.9336    
   4587.7759    
   4566.3774    
   4565.4463    
   4573.1240    
   4582.9624    
   4599.2847    
   4609.1475    
   4606.0513    
   4596.4800    
   4569.6836    
   4521.5107    
   4463.9722    
   4382.4180    
   4287.8818    
   4204.5889    
   4105.4888    
   4006.3152    
   3908.0859    
   3806.7866    
   3702.5146    
   3574.8289    
   3439.0547    
   3307.9023    
   3186.8657    
   3054.2173    
   2923.2542    
   2792.1221    
   2662.6360    
   2537.4089    
   2409.3203    
   2296.6082    
   2197.9353    
   2112.9126    
   2043.7415    
   1989.2684    
   1944.2576    
   1908.5851    
   1875.5221    
   1858.2754    
   1836.1030    
   1827.1685    
   1820.7162    
   1815.0912    
   1793.8345    
   1767.7010    
   1742.4515    
   1699.3250    
   1660.4369    
   1607.9585    
   1558.9617    
   1506.1980    
   1468.8296    
   1426.0417    
   1392.9177    
   1374.1000    
   1363.9875    
   1367.2861    
   1380.8495    
   1391.2667    
   1424.6713    
   1466.9399    
   1527.7919    
   1603.5192    
   1701.7751    
   1791.9292    
   1888.6796    
   2007.2986    
   2122.2000    
   2246.9751    
   2355.8992    
   2478.2695    
   2592.3306    
   2685.2378    
   2764.5303    
   2824.4360    
   2875.5593    
   2899.4578    
   2910.5850    
   2902.4910    
   2897.1470    
   2898.2058    
   2902.9233    
   2921.3821    
   2956.4148    
   3014.6604    
   3104.9063    
   3206.3040    
   3350.6565    
   3530.0483    
   3738.3618    
   4014.9431    
   4323.2383    
   4706.1592    
   5148.0522    
   5607.3052    
   6115.3438    
   6685.2061    
   7302.3252    
   7981.0518    
   8654.6982    
   9317.3066    
   9976.2324    
  10591.1055    
  11183.5420    
