  11100 12  1   YSAG1    PUC    BMW  .000 U SI 021293 00.01   1        
  PROGRAM LAMBDA-9   VERSION 02.31                                     
  USER BMW DATE & TIME  1993 02 12 10.07 51.51    10.500    295K U     
 AU1 HO  50     0     0 YSAG            1.750000 - 2.200000 .00020     
 FILE NAME                                ON PC = YSAG1.SP             
 NO_POINTS  =  2251.    pts   DATA_INTV =  .000200 æm                  
 MIN_LAMBDA =  1.750000 æm     MIN_DATA =    .49620                    
 MAX_LAMBDA =  2.200000 æm     MAX_DATA =    .79270                    
 SCANSPEED  = 15.000000 NM/MIN SLITWIDTH=   .00000 æm                  
  RESP TIME =   .5      sec SENSITIVITY = 5          DATE=93/02/12     
 09:54:23    93/02/12                                                  
  YSAG1                                                                
  This spectra is part of Database LASERS
 Database LASERS was created by Pat Cross working 
 at NASA Langley Research Center, Internal Operations Group,
 Aerospace Electronics Systems Division, Remote Sensing 
 Technology Branch. phone:(757)864-1633   fax:(757)864-7894 
     e-mail p.l.cross@larc.nasa.gov 
     homepage http://aesd.larc.nasa.gov/laser/dbmain.htm
  EOH     (1X,F11.4)                                                   
  2251.         
    243.5604    
    228.8491    
    243.9570    
    306.4064    
    279.1889    
    301.8159    
    307.0011    
    247.4347    
    222.7864    
    215.5356    
    178.5400    
    215.9321    
    248.4259    
    203.9230    
    233.9093    
    152.3006    
    103.0878    
    232.0208    
    160.3176    
    167.9410    
    133.5118    
     76.9576    
     72.2295    
    151.4122    
    176.3601    
    191.4247    
    196.5800    
    224.0689    
    293.9107    
    291.6168    
    247.0204    
    282.0495    
    200.2487    
    163.2901    
    200.6450    
    119.1941    
    141.6247    
    181.4133    
    146.9660    
    179.3323    
    162.2021    
    211.9527    
    232.0064    
    212.3489    
    200.1464    
    240.0521    
    175.7672    
    228.0315    
    186.0700    
    176.3615    
    216.2155    
    268.5884    
    181.9076    
    244.1218    
    274.1600    
    244.5179    
    282.0231    
    197.7644    
    123.7504    
    146.1808    
    153.7969    
    171.3120    
    127.0120    
    119.8026    
    176.8562    
     85.6744    
    117.9297    
    251.8653    
    172.6983    
    237.3542    
    249.9738    
    128.7943    
    185.8685    
    215.8095    
    171.4111    
    139.4644    
    117.4416    
     85.5879    
     93.1776    
     90.9109    
    147.8686    
    123.3667    
    130.9722    
    160.8230    
    185.7674    
    171.1139    
    278.0076    
    268.2549    
    241.1159    
    313.4688    
    283.7774    
    271.5342    
    276.7068    
    232.1744    
    219.9668    
    235.0530    
    158.4514    
    255.3189    
    163.7921    
    159.0452    
    191.4113    
    102.6592    
    127.5234    
    127.7213    
      0.0006    
    110.8472    
    133.2530    
     86.5989    
    178.1411    
     77.1457    
     92.1197    
    250.6361    
    173.9830    
    211.3279    
    263.6530    
    157.2663    
    159.9365    
    249.3389    
    187.5449    
    284.5383    
    182.9906    
    148.5686    
    141.3566    
    129.2116    
    134.3453    
    109.8735    
     85.4337    
    167.0583    
    206.8606    
    167.4540    
    276.7638    
    291.8902    
    316.9930    
    297.2635    
    222.9201    
    270.2935    
    223.3157    
    131.9808    
    107.5140    
    152.1291    
     61.1377    
     95.7884    
     88.5984    
      2.8122    
    155.5890    
     76.8840    
     42.6644    
    168.5410    
     60.2608    
    181.3017    
    231.0455    
    213.8878    
    278.6289    
    268.8825    
    177.3436    
    192.3870    
    232.2318    
    217.5529    
    247.5154    
    163.4981    
    193.3755    
    144.1316    
     65.4878    
    203.8727    
    154.6031    
     95.6073    
    259.0294    
    142.8486    
    192.4830    
    222.4029    
    145.9108    
    190.6007    
    178.4284    
    183.5737    
    196.1430    
    216.1539    
    119.9580    
    209.1172    
    169.7244    
    160.0373    
    197.3289    
    180.2072    
    177.9330    
    242.5298    
    208.0234    
    252.8523    
    181.1953    
     99.9555    
    213.7686    
     92.9648    
    167.1535    
    157.4689    
    103.4066    
    140.5830    
    214.9541    
    195.3436    
    178.2264    
    183.3688    
    183.5664    
    255.6186    
    243.4090    
    228.7266    
    278.5670    
    226.6440    
    187.2254    
    115.8291    
     98.7857    
    177.9269    
    101.6433    
     77.2335    
    131.6068    
    114.5500    
    136.9353    
    250.9387    
    211.4736    
    216.6252    
    273.8766    
    239.3249    
    244.4836    
    314.2612    
    244.8786    
    312.1664    
    222.9615    
    173.6725    
    225.8347    
    146.9041    
     90.4299    
    181.8770    
    184.5472    
    204.5347    
    194.8346    
    150.5571    
    217.5052    
    230.0903    
    195.6244    
    235.4417    
    200.9667    
    169.0252    
    176.6344    
    132.4030    
    219.0848    
    169.8149    
    167.5419    
    197.4013    
    222.3516    
    178.0163    
    225.2240    
    203.1384    
    225.6188    
    287.8484    
    226.0136    
    255.9603    
    266.0849    
    221.6511    
    211.9444    
    246.8277    
    197.4935    
    262.1083    
    170.7002    
    230.2663    
    317.3780    
    265.3786    
    248.2093    
    340.3827    
    241.1662    
    278.5832    
    271.3311    
    236.8018    
    222.1346    
    138.3244    
    116.3454    
    136.2534    
    178.4027    
    210.7447    
    220.8435    
    213.6146    
    248.4933    
    328.2006    
    335.8688    
    318.6381    
    291.4806    
    219.7484    
    165.5590    
    215.1929    
    235.1994    
    245.3098    
    225.6861    
    255.6225    
    186.5019    
    268.4225    
    271.1006    
    311.0536    
    226.8696    
    170.1981    
    264.4450    
    277.0525    
    197.9673    
    178.3950    
    181.0627    
    243.1149    
    322.7806    
    298.1086    
    407.9746    
    305.9603    
    378.3974    
    388.5804    
    336.4100    
    356.5397    
    279.6164    
    165.9486    
    210.6208    
    282.6913    
    287.8546    
    270.6738    
    194.1015    
    253.7060    
    273.7474    
    288.8405    
    286.5537    
    256.9745    
    140.9894    
    324.4328    
    175.9170    
    255.2833    
    277.8055    
    225.9500    
    290.6149    
    387.9239    
    405.6039    
    353.4006    
    318.7440    
    256.8604    
    284.3483    
    267.1742    
    309.5858    
    324.7042    
    215.7467    
    282.8508    
    297.9478    
    305.6007    
    333.1562    
    323.4001    
    291.2848    
    351.1777    
    353.8651    
    269.5393    
    344.2956    
    309.6618    
    304.8888    
    300.1157    
    337.6150    
    362.7218    
    243.6529    
    295.9365    
    368.2980    
    328.6458    
    241.9639    
    234.7328    
    257.2245    
    262.3786    
    304.7681    
    339.7824    
    325.0504    
    322.7599    
    288.1714    
    382.9357    
    340.7675    
    380.8347    
    291.4424    
    237.0970    
    274.4652    
    344.2423    
    267.4195    
    344.6363    
    290.1414    
    272.9694    
    357.6797    
    310.6024    
    310.7994    
    375.7168    
    326.1087    
    301.4526    
    383.7894    
    264.6269    
    321.9239    
    351.9790    
    307.4048    
    394.7547    
    424.9233    
    420.1222    
    437.8203    
    458.0387    
    410.7193    
    463.4405    
    383.6579    
    361.4216    
    359.1271    
    329.4566    
    344.5821    
    270.2572    
    265.4970    
    375.0622    
    352.8376    
    380.4431    
    515.7656    
    460.7953    
    586.6033    
    624.6459    
    592.0381    
    706.0287    
    749.3912    
    716.5706    
    785.4068    
    729.6558    
    803.6365    
    824.2382    
    842.3069    
    794.0328    
    924.6148    
    819.9230    
    986.6757    
   1015.2039    
    974.2064    
   1106.0250    
   1028.6868    
   1070.1968    
   1176.6666    
   1197.6696    
   1255.1997    
   1320.7579    
   1320.9547    
   1370.9771    
   1334.4465    
   1248.3556    
   1355.8181    
   1214.8625    
   1217.6642    
   1264.8021    
   1327.7668    
   1252.1442    
   1283.6785    
   1278.6495    
   1276.2332    
   1289.4958    
   1253.1281    
   1263.7649    
   1139.0597    
   1173.0029    
   1142.0459    
   1085.2601    
   1121.7000    
   1108.9447    
    992.9727    
   1016.3472    
   1052.6530    
   1055.4320    
   1078.8804    
    991.3839    
    971.0049    
   1007.2229    
    981.6833    
    930.5102    
    912.7605    
    828.5806    
    831.3276    
    841.7336    
    740.0845    
    890.6954    
    776.0617    
    837.4157    
    896.4044    
    891.4821    
    984.0435    
    955.9700    
    935.6326    
   1028.4060    
    979.6862    
    956.7566    
    972.3676    
    882.8200    
    906.0527    
    949.8407    
    885.9686    
    896.4019    
    940.1649    
    774.3179    
    850.9707    
    884.3930    
    866.6914    
    869.4443    
    882.4245    
    890.2957    
    818.9809    
    821.7273    
    860.2057    
    934.6323    
    812.1215    
    873.5722    
    945.4836    
    856.0791    
    899.7441    
    915.3053    
    928.3162    
   1015.8747    
   1016.0713    
   1065.2638    
   1047.3948    
   1052.7505    
   1063.2711    
   1089.3016    
   1043.0216    
   1110.3877    
   1102.8221    
   1103.0187    
   1290.3914    
   1369.1232    
   1369.3197    
   1453.6479    
   1409.1028    
   1493.6041    
   1602.3652    
   1599.9060    
   1629.3311    
   1592.3357    
   1589.8779    
   1645.8833    
   1611.5120    
   1710.2566    
   1683.7686    
   1678.6317    
   1644.2040    
   1753.8153    
   1604.7230    
   1727.4637    
   1716.9727    
   1663.8225    
   1754.7976    
   1736.2688    
   1755.1904    
   1817.0435    
   1750.2322    
   1747.7527    
   1857.9512    
   1774.9163    
   1831.4562    
   1839.7148    
   1650.0089    
   1767.6670    
   1770.5419    
   1749.3241    
   1827.2606    
   1840.8933    
   1913.8053    
   1954.5201    
   2017.0131    
   2136.9536    
   2180.8818    
   2241.3733    
   2445.7905    
   2588.0200    
   2591.0125    
   2770.9839    
   2924.1968    
   3055.7168    
   3257.5085    
   3359.3074    
   3593.7954    
   3650.0605    
   3828.4133    
   4038.5847    
   4217.5771    
   4416.7144    
   4692.7202    
   4761.7148    
   4957.1426    
   5241.1387    
   5431.8281    
   5510.0630    
   5799.1626    
   5852.3618    
   6153.4751    
   6234.7246    
   6190.9727    
   6285.9517    
   6296.3311    
   6265.9932    
   6286.5405    
   6239.2876    
   6114.6470    
   6064.4653    
   5841.2568    
   5663.2822    
   5486.9590    
   5222.1973    
   4954.7402    
   4831.9365    
   4582.2832    
   4409.5151    
   4471.3037    
   4229.3594    
   3990.4548    
   3888.6646    
   3858.9666    
   3766.7932    
   3618.9426    
   3475.1616    
   3425.6582    
   3182.1726    
   3269.0398    
   3139.3760    
   3107.9626    
   3010.7861    
   3062.4702    
   3025.4675    
   3068.5930    
   3040.1594    
   3155.1338    
   3166.8462    
   3126.7668    
   3285.6826    
   3317.7820    
   3387.7705    
   3443.4019    
   3434.8347    
   3546.3345    
   3691.0225    
   3703.0608    
   3795.2971    
   3890.9702    
   3978.1079    
   4038.4949    
   4093.0266    
   4281.5742    
   4336.8037    
   4398.3345    
   4497.0791    
   4695.9180    
   4746.0986    
   4856.0972    
   5023.7822    
   5036.6787    
   5199.5518    
   5308.9785    
   5312.3970    
   5380.3838    
   5438.8794    
   5507.3169    
   5572.7329    
   5605.6245    
   5654.9658    
   5701.1465    
   5701.3428    
   5645.7148    
   5767.6221    
   5623.1680    
   5580.8369    
   5525.5630    
   5324.8120    
   5337.9087    
   5228.7271    
   5056.4873    
   4986.8765    
   4835.6514    
   4879.8877    
   4738.8843    
   4583.4106    
   4518.6035    
   4371.0464    
   4322.2466    
   4353.0508    
   4231.1064    
   4149.2998    
   4149.4961    
   3971.7170    
   3888.0293    
   3837.4761    
   3766.2534    
   3627.3608    
   3501.1895    
   3396.2305    
   3422.6616    
   3347.1675    
   3237.2788    
   3202.8420    
   3059.4119    
   3071.0586    
   3039.7825    
   2923.1296    
   2946.0693    
   2903.6433    
   2883.9819    
   2958.0393    
   2904.2312    
   2873.2317    
   2822.4907    
   2774.7046    
   2741.1025    
   2825.9053    
   2738.6819    
   2820.6458    
   2770.0481    
   2789.9810    
   2911.8691    
   2875.1912    
   2810.3259    
   2725.9905    
   2656.0293    
   2633.8291    
   2712.5271    
   2567.1917    
   2623.2285    
   2612.2444    
   2637.6072    
   2640.6018    
   2621.2175    
   2649.3914    
   2621.6091    
   2504.7417    
   2496.6038    
   2558.0017    
   2499.7737    
   2450.0339    
   2400.4250    
   2386.8086    
   2304.3452    
   2315.5420    
   2299.2383    
   2335.2002    
   2296.8828    
   2261.3848    
   2223.2170    
   2193.3237    
   2158.0217    
   2155.4893    
   2147.5042    
   2125.8997    
   2177.9114    
   2172.6455    
   2134.6589    
   2123.9592    
   2137.7759    
   2167.9700    
   2154.5237    
   2119.2979    
   2171.2874    
   2149.6580    
   2141.6763    
   2212.8625    
   2169.3408    
   2191.3835    
   2156.0901    
   2230.0671    
   2331.8364    
   2263.3408    
   2365.2861    
   2401.3618    
   2401.5576    
   2443.2351    
   2540.5786    
   2521.3054    
   2644.2083    
   2591.3206    
   2666.9961    
   2779.5676    
   2765.6794    
   2867.5081    
   2788.6096    
   2859.4097    
   2973.1196    
   2959.0884    
   2976.3582    
   3096.4939    
   3025.2056    
   3122.6863    
   3246.6335    
   3255.4929    
   3380.3064    
   3494.2366    
   3558.8916    
   3816.1523    
   3864.0034    
   4071.0942    
   4161.9507    
   4219.7871    
   4400.0967    
   4653.4819    
   4706.5918    
   5008.3901    
   5132.4883    
   5305.5835    
   5607.2793    
   5897.2275    
   6020.5801    
   6306.7559    
   6381.6748    
   6618.1499    
   6885.5278    
   7153.1597    
   7331.3716    
   7464.3794    
   7591.0654    
   7850.4678    
   7858.0151    
   7847.1826    
   7906.2686    
   7792.5278    
   7796.3892    
   7635.9976    
   7448.1396    
   7333.5234    
   7148.6177    
   6797.8247    
   6624.9224    
   6450.1626    
   6081.7373    
   5988.3818    
   5704.0820    
   5498.5327    
   5353.1152    
   5106.7061    
   4869.7305    
   4729.0303    
   4422.8716    
   4386.2676    
   4316.1250    
   4212.8184    
   4234.2773    
   4225.3574    
   4167.9194    
   4304.8965    
   4375.3848    
   4452.2803    
   4529.4858    
   4656.6563    
   4831.6582    
   5157.6235    
   5421.2134    
   5737.7622    
   5896.4692    
   6224.4463    
   6768.7505    
   7122.8237    
   7254.3218    
   7653.9434    
   7807.4863    
   8252.7383    
   8525.0479    
   8578.6084    
   8647.6367    
   8686.1816    
   8678.7012    
   8602.3076    
   8325.5381    
   8101.0698    
   7904.9902    
   7399.8374    
   6991.8413    
   6761.6606    
   6445.3066    
   6140.8423    
   5900.7700    
   5647.3237    
   5413.3643    
   5278.2856    
   5051.9683    
   4928.8779    
   4728.4717    
   4641.5640    
   4530.3516    
   4478.1616    
   4315.9624    
   4206.6362    
   4110.0049    
   4101.1479    
   3996.0500    
   3912.4260    
   3927.5625    
   3832.3408    
   3637.2344    
   3782.2356    
   3826.9785    
   3847.9988    
   3863.0840    
   3809.7332    
   3962.0361    
   4094.4451    
   4100.6714    
   4194.6001    
   4267.6831    
   4359.3789    
   4568.6226    
   4550.2788    
   4593.7568    
   4569.2085    
   4479.9707    
   4557.2383    
   4585.2554    
   4495.9453    
   4557.8242    
   4524.0693    
   4493.4517    
   4657.5200    
   4577.1489    
   4664.1216    
   4583.7241    
   4605.5835    
   4655.3911    
   4702.2148    
   4689.9648    
   4868.2783    
   4855.9194    
   4928.4146    
   5016.9976    
   4900.4805    
   4888.1011    
   4913.4546    
   4825.7427    
   4660.6450    
   4701.2505    
   4595.9365    
   4543.5942    
   4322.8735    
   4277.3672    
   4277.5625    
   4262.5469    
   4108.2886    
   4057.2766    
   3889.7549    
   3937.7195    
   3908.0457    
   3768.4792    
   3739.0703    
   3680.1929    
   3624.4390    
   3792.9775    
   3704.3857    
   3784.4692    
   3790.5964    
   3604.8438    
   3599.1663    
   3605.2341    
   3514.5942    
   3523.5608    
   3383.8933    
   3268.3145    
   3288.7192    
   3225.4702    
   3182.5286    
   3133.9541    
   3011.3440    
   3034.3271    
   3020.2761    
   2858.8218    
   2904.2532    
   2760.6294    
   2679.5261    
   2688.1152    
   2626.8391    
   2640.9880    
   2649.5598    
   2560.5913    
   2549.6699    
   2572.1028    
   2513.9763    
   2580.8406    
   2445.1680    
   2285.7834    
   2354.5989    
   2245.1211    
   2193.4409    
   2136.4648    
   1947.3174    
   1928.6815    
   1939.6351    
   1795.1030    
   1800.6396    
   1784.8162    
   1691.8430    
   1715.9514    
   1639.1986    
   1644.6898    
   1647.5344    
   1486.8110    
   1437.1599    
   1487.2012    
   1364.3304    
   1406.3302    
   1362.1104    
   1304.9800    
   1383.3893    
   1347.0448    
   1415.1541    
   1407.5006    
   1342.4148    
   1373.9174    
   1413.3187    
   1311.7455    
   1416.3243    
   1361.6461    
   1270.7356    
   1343.7802    
   1338.7631    
   1268.7235    
   1378.2843    
   1357.5991    
   1394.3488    
   1376.2577    
   1293.0819    
   1280.2825    
   1270.0886    
   1161.5438    
   1345.9253    
   1260.2905    
   1167.2922    
   1245.1171    
   1144.4557    
   1147.2306    
   1227.5603    
   1137.3048    
   1106.5862    
   1127.3846    
   1035.0404    
   1066.0323    
   1061.0902    
    958.8506    
   1056.3461    
   1041.1438    
    969.6544    
   1074.9087    
   1018.6584    
   1041.9236    
   1047.2500    
    919.5911    
   1019.4382    
    937.8289    
    836.2596    
