  11100 16  1 01NYLF4.SP PNYLF4 MS  .0000 C S1 010588 00.01   1         
  PROGRAM PE-CONVERT     VER 02.30                                      
  USER MS  DATE & TIME  1988 01 28 16.49 04.86    4.1000    295K C      
 AU1 ND 100     0     0 YLF             0.325000 - 0.830000 .00020       
 FILE NAME ON PE-3600 = 001 NYLF4.SP      ON PC = 001NYLF4.SP            
 NO_POINTS  =  2526.    pts   DATA_INTV = 0.000200 µm                    
 MIN_LAMBDA =  0.325000 µm     MIN_DATA =      0.                        
 MAX_LAMBDA =  0.830000 µm     MAX_DATA = 107808.0                       
 SCANSPEED  = .015      µm/min SLITWIDTH=  0.00010 µmITA =   0.          
       RESP =   1.0     sec        ISMS =   0.       DATE=88/01/05       
       INST = 509.                    ? =   0.                           
 POLARIZED SPECTRA. PLASTIC POLARIZERS USED.EFFECTS OF PLASTIC           
 NORMALIZED OUT.ONLY 95%POLARIZED AT 810NM. POL. GETS WORSE              
 (90%) AT 820 AND WORSE BELOW 390NM.                                     
 converted by Mark Storm. header added by hand.                          
 ND:YLF,AIRTRON,.162IN THICK,C-AXIS,PARAL. TO AWIND                      
  EOH     (1X,F11.4)                                                     
  2526.           
   2626.4663      
   1743.4634      
   2456.3579      
   2574.4722      
   3159.4971      
   2690.4214      
   3218.2549      
   3109.3208      
   3762.5444      
   3564.3804      
   3799.7295      
   3487.3938      
   3691.4241      
   3257.1077      
   3960.6084      
   3562.5076      
   4097.2886      
   4492.0410      
   4122.5347      
   3028.2644      
   3480.0427      
   3345.8345      
   3398.7917      
   3398.9822      
   3782.4880      
   3910.2598      
   4677.5488      
   5059.2188      
   6176.6626      
   6677.4717      
   5951.4668      
   4770.9067      
   2916.5325      
   2783.9231      
   2806.1902      
   3020.8806      
   3351.6672      
   2818.5322      
   2130.0686      
   2425.7009      
   1762.2035      
   1363.5135      
   1996.5156      
   2109.5056      
   1158.0962      
   1172.0477      
   1614.1832      
   2010.2499      
   1209.8044      
   1561.4917      
   1354.0454      
   1728.9497      
   1075.7189      
   1689.8876      
   1159.9000      
   1343.8430      
   1198.8289      
   1973.5874      
   1997.9696      
   1473.8798      
   1332.2520      
   1107.5161      
   1598.8175      
   1596.1882      
   1586.5568      
   1555.9358      
   1955.2548      
   1580.0801      
   2125.4106      
   1521.6831      
   1166.8413      
   1844.0419      
   1554.3539      
   2111.9607      
   1475.0968      
   2073.6951      
   2329.5342      
   2138.4185      
   1558.1783      
   1357.7323      
   1800.3279      
   1145.3317      
   1138.6235      
   1447.3691      
   1782.6455      
   1426.8248      
   1421.4287      
   1434.1190      
   1674.8479      
   1766.5444      
   2271.3274      
   1993.6615      
   2133.7793      
   2528.0996      
   2832.9087      
   2305.3035      
   2280.9629      
   1715.7245      
   1391.4445      
   2076.2810      
   2059.3059      
   1747.3700      
   1964.1606      
   1528.7839      
   1980.1332      
   2003.0753      
   2017.4841      
   2104.7415      
   2213.8525      
   2786.7625      
   3027.8647      
   3411.3049      
   3661.7339      
   4773.8843      
   5494.6743      
   7071.5718      
   7949.9800      
   9368.3154      
  11391.9531      
  13564.4336      
  15765.9893      
  17033.0234      
  17250.4297      
  16446.9707      
  16431.6836      
  16496.2578      
  15935.2822      
  15259.0635      
  14401.3857      
  13999.9785      
  12694.1709      
  13268.3965      
  14577.8486      
  14774.3525      
  14904.6758      
  14702.6396      
  15336.5918      
  16249.1035      
  15123.7920      
  12572.2305      
  10012.0596      
   7798.0298      
   6953.3218      
   7457.5806      
   6847.4365      
   6299.6987      
   6451.4746      
   5116.5469      
   4281.7402      
   4008.2588      
   3900.4211      
   4158.9829      
   3871.4924      
   4954.5718      
   5345.1519      
   4837.8228      
   4961.4419      
   5596.7432      
   7351.4067      
   9533.1709      
  11352.3154      
  14675.3721      
  23050.7988      
  21283.9648      
  11915.0273      
   7002.1128      
   4817.0420      
   3924.4634      
   3302.5188      
   2439.5803      
   1636.9785      
   2366.0488      
   1648.4878      
   1480.8169      
   1585.7064      
   1924.0989      
   1197.2040      
   1209.7466      
   1663.3740      
   1495.6052      
   1277.7949      
   1087.9552      
   1188.4076      
    988.3351      
    587.5356      
   1195.7117      
   1433.9142      
    751.0551      
   1019.0947      
   1240.3824      
    696.0810      
    879.0716      
    815.3948      
    996.5485      
    342.9684      
    603.8375      
    830.8623      
    798.4561      
   1544.2927      
    923.7086      
   1673.4352      
   1557.2770      
   1012.8057      
    404.1134      
    276.5929      
    680.5868      
   1216.4934      
    367.3484      
    710.6719      
    467.6595      
    770.4139      
    516.0934      
    966.3463      
   1155.4773      
   1180.3690      
    570.2536      
   1121.5266      
   1095.5852      
    257.2409      
     87.0256      
    728.4646      
    927.9969      
    620.8873      
    707.2496      
   1165.1694      
   1919.5243      
    564.9820      
    403.2789      
    812.0519      
    278.5535      
    866.5889      
    811.0802      
    124.2650      
    727.4424      
    765.4219      
    389.6465      
     16.9534      
    736.0576      
   1127.1121      
   1233.1962      
    631.2662      
    510.6024      
    904.8240      
   1573.9346      
    643.8800      
   1001.9933      
    336.4725      
      0.0000      
    364.6533      
    664.7057      
   1489.6510      
    526.5802      
    994.6709      
    693.5074      
     25.7642      
   1162.2104      
    845.4106      
    151.1287      
      0.0000      
      0.0000      
      0.0000      
      0.0000      
   1309.2474      
    963.2639      
    378.5958      
   1488.7015      
    494.9469      
    842.6777      
    772.3384      
    813.0828      
    694.2269      
   1162.7755      
   1057.2594      
    915.4214      
    945.5007      
    792.1251      
   1098.8383      
    820.8134      
    505.7459      
    831.8979      
    814.3907      
   1635.9548      
    890.6431      
   1155.9470      
   1043.6232      
   1027.3291      
   1100.0140      
    843.6884      
    938.9725      
    873.7909      
    965.1012      
   1268.4622      
   1018.5735      
   1203.8849      
   1259.1434      
   1065.4265      
   1154.7062      
   1201.5897      
   1023.3618      
    893.9683      
   1193.6725      
   1308.2988      
    929.6848      
   1379.1545      
    924.4679      
    991.3752      
    605.5252      
   1066.7906      
    863.7371      
    846.2020      
    876.1842      
   1285.9275      
   1127.6738      
   1213.0365      
    637.3435      
    954.3028      
    864.6299      
    995.4457      
    878.4329      
   1079.0858      
   1277.2570      
   1219.4332      
    918.3074      
   1227.9203      
   1471.8088      
   1313.7378      
    778.9796      
    958.3485      
   1118.4572      
   1180.3833      
   1148.8771      
    909.7623      
    938.4550      
   1124.4878      
   1123.2213      
    998.7755      
   1226.5729      
    958.0665      
    875.1733      
   1006.0289      
   1130.7272      
   1074.6195      
   1606.3547      
   1314.2915      
    924.7606      
   1231.6647      
    901.8459      
   1247.0425      
   1356.3446      
   1338.4473      
   1116.6888      
   1244.7054      
   1033.3621      
    991.1245      
   1195.4254      
   1088.4222      
   1180.4990      
   1048.9258      
    840.6281      
   1087.4648      
   1013.6962      
   1063.0228      
   1156.3745      
   1004.4436      
    879.2515      
    834.5682      
   1049.8518      
   1309.8738      
   1228.5387      
    778.0942      
    912.4892      
   1084.5836      
   1425.4065      
   1095.7474      
   1532.8075      
   1493.8729      
    891.3393      
   1261.1628      
   1075.7018      
   1155.3519      
   1043.0599      
   1272.6039      
   1290.6550      
   1192.8710      
    744.4550      
   1062.7094      
   1134.0771      
   1174.0126      
   1212.6359      
   1270.6355      
    940.3442      
   1362.0989      
   1281.9747      
   1356.7545      
   1476.2627      
   1002.1865      
    866.1530      
   1157.1270      
   1216.3687      
    916.7241      
    969.9296      
   1084.8101      
   1383.9592      
   1085.0029      
   1016.7101      
   1168.8911      
   1219.8951      
   1121.0277      
   1171.9279      
    996.7111      
   1298.9071      
   1308.6779      
   1212.2054      
   1259.1565      
   1318.6385      
   1180.8414      
   1090.3538      
    963.3746      
   1155.0117      
   1332.9427      
   1077.0339      
    999.2084      
   1126.5609      
    974.8439      
   1332.0283      
    794.3651      
    988.7619      
   1035.2806      
   1398.8994      
   1238.5927      
   1511.7147      
   1365.9033      
   1150.8230      
   1013.9755      
   1450.8354      
   1545.6475      
   1524.8132      
   1198.0161      
   1196.7312      
   1569.7509      
   1445.8239      
   1190.1266      
   1012.0637      
   1051.7849      
    821.8339      
    914.2233      
   1303.6250      
   1033.0066      
    919.9361      
   1317.7156      
   1392.5803      
   1389.8958      
   1284.8254      
   1108.8212      
   1552.9452      
   1671.9818      
   1752.1589      
   1522.5195      
   1482.2112      
   1375.3569      
   1375.4451      
   1043.8182      
   1045.2751      
   1334.1698      
   1520.3475      
   1350.9532      
   1642.1090      
   1226.8489      
   1218.6736      
   1133.5430      
   1286.4099      
   1009.1756      
   1278.2991      
   1246.6604      
   1382.2095      
   1378.1387      
   1673.8179      
   1252.5204      
   1238.8219      
   1477.0792      
   1255.5341      
   1212.9117      
   1298.4893      
   1434.3235      
   1374.7510      
   1238.0427      
   1173.4512      
   1412.4481      
   1214.8832      
   1264.5732      
   1161.4220      
   1147.7771      
   1310.3890      
   1267.6692      
   1422.7538      
   1356.2872      
   1240.3455      
   1334.3112      
   1206.0879      
   1203.4187      
    978.8932      
   1376.1781      
   1405.3785      
   1161.1346      
   1404.1547      
   1252.1185      
   1127.0701      
   1300.5818      
   1385.0703      
    994.6368      
   1281.4967      
   1242.9624      
   1359.0776      
   1108.4490      
   1210.1570      
   1255.6942      
   1167.6942      
   1209.0223      
   1206.3523      
   1124.0144      
   1361.1094      
   1445.8046      
   1515.4600      
   1497.4303      
   1458.5531      
   1638.6373      
   2019.8219      
   2798.9875      
   4360.8438      
   5939.2095      
   4183.1421      
   2481.1987      
   2296.4153      
   2469.7617      
   3171.0164      
   3630.2361      
   3095.2358      
   2839.4695      
   2144.8525      
   1708.4668      
   1470.9447      
   1231.5836      
   1518.4359      
   1557.5649      
   1731.3397      
   1197.4868      
   1174.1959      
   1192.1404      
   1375.7864      
   1126.3834      
   1374.5553      
   1221.3436      
    991.2294      
   1060.9575      
   1174.8131      
    980.5554      
   1202.4618      
   1051.6908      
    929.0407      
   1029.9792      
   1060.1230      
   1157.4902      
   1226.3136      
   1022.0895      
   1053.5917      
   1016.7820      
   1044.1744      
   1148.3331      
   1044.3250      
   1073.1161      
   1209.0240      
   1051.3837      
   1114.4213      
   1180.3722      
   1106.3489      
   1260.3586      
   1043.5562      
   1253.6149      
   1123.0939      
   1160.2129      
   1119.1301      
   1019.3400      
   1000.3089      
   1075.5251      
   1274.8147      
   1280.4078      
   1137.3964      
   1224.0464      
    836.2500      
   1077.3318      
   1060.9900      
   1178.9498      
   1014.6862      
   1040.7062      
   1136.6089      
   1105.1522      
    873.4401      
    761.1418      
    907.5314      
    861.4462      
   1063.0796      
   1218.1774      
   1003.1281      
    984.1086      
   1189.5093      
   1222.5934      
   1049.8398      
   1132.0535      
   1062.2850      
    882.5153      
   1161.0842      
   1051.5602      
   1191.4509      
   1254.8397      
   1297.6769      
   1288.0826      
   1092.9532      
   1073.8628      
   1136.9453      
   1306.3132      
   1237.4219      
   1296.7850      
   1270.6375      
   1328.7017      
   1373.0482      
   1251.5457      
   1151.2234      
   1276.5027      
   1264.1594      
   1441.3510      
   1587.6818      
   1722.2489      
   1629.7706      
   1279.6757      
   1462.5359      
   1518.2670      
   1547.6094      
   1476.6456      
   1603.6028      
   1729.8213      
   1701.8016      
   1652.7889      
   1928.9814      
   1970.1711      
   2194.0757      
   2284.5437      
   2376.7910      
   2659.8855      
   2876.9807      
   2998.1272      
   3371.0950      
   3103.5864      
   2685.0537      
   2391.6960      
   2214.8071      
   2033.5015      
   1939.8408      
   2035.0559      
   2006.6808      
   1874.9285      
   1972.7262      
   1801.6637      
   1755.2644      
   1985.7031      
   1909.2057      
   2028.4695      
   2064.1245      
   2300.3875      
   2181.3523      
   2235.8735      
   2075.7856      
   2203.0293      
   2287.7708      
   2223.2256      
   2406.0754      
   2532.1511      
   2586.0049      
   2723.2595      
   2713.0796      
   2839.2832      
   2602.2781      
   2474.5222      
   2464.4478      
   2405.2126      
   2228.2358      
   2304.4299      
   2425.6370      
   2626.0371      
   2926.7761      
   3171.5674      
   3310.6582      
   3167.2239      
   3191.1438      
   3045.4429      
   2819.6616      
   2638.2092      
   2449.4150      
   2332.5376      
   2144.6580      
   2196.2253      
   2025.0281      
   2087.7468      
   2271.0017      
   2305.5669      
   2643.1482      
   3163.6321      
   4134.9644      
   4771.2671      
   4573.1807      
   3908.2637      
   3255.0083      
   2979.9255      
   2506.9158      
   2307.6243      
   2017.3661      
   1830.4825      
   1981.9722      
   2090.1621      
   2300.7393      
   2755.1875      
   3487.0547      
   3414.7461      
   2965.8147      
   2393.2678      
   2050.6963      
   2194.9646      
   2049.3955      
   2023.8457      
   1971.3483      
   2155.1428      
   2042.5195      
   2182.4417      
   2171.0542      
   2268.5901      
   2644.9817      
   2596.9558      
   2353.6609      
   1677.1174      
   1738.9407      
   1765.7163      
   1689.9170      
   1579.4199      
   1640.9917      
   1579.5386      
   1787.1289      
   1959.5979      
   2332.6440      
   2808.2061      
   4325.8589      
   6334.7612      
   4654.7803      
   3242.5256      
   2533.9912      
   2004.0708      
   2122.3396      
   1927.5858      
   2002.8265      
   2068.3228      
   1790.7666      
   2085.5383      
   2448.9385      
   2750.3584      
   3330.0176      
   4630.2114      
   6485.4146      
   7192.1836      
   6571.0435      
   5021.2026      
   4166.5933      
   3594.3628      
   3082.7222      
   2778.7832      
   2750.9905      
   2871.4651      
   2625.4492      
   2631.3354      
   2678.0840      
   2095.1265      
   2032.5197      
   1679.5576      
   1538.4316      
   1553.8240      
   1470.3435      
   1442.6177      
   1441.2854      
   1211.9730      
   1159.8263      
   1365.2178      
   1179.1582      
   1151.7618      
   1121.6553      
   1023.2584      
   1035.5977      
   1017.9091      
   1089.0155      
    939.0165      
   1027.6293      
   1252.5565      
   1067.3516      
   1157.8040      
   1030.5804      
    864.6685      
   1044.3434      
    963.9509      
   1151.2178      
   1152.6461      
    943.7026      
   1040.5211      
   1239.3884      
   1496.8693      
   1431.6188      
   1336.1136      
   1332.0226      
   1252.0543      
    953.6605      
    838.3301      
    929.2910      
    835.7308      
    845.2637      
    951.2085      
   1053.5168      
    934.9955      
   1098.7529      
    999.0895      
    975.9808      
    947.4495      
   1101.7048      
   1040.2334      
   1000.7180      
   1197.8779      
   1121.0900      
   1089.6528      
   1133.5278      
   1058.3074      
   1092.5469      
   1092.5996      
   1121.4070      
   1057.1532      
   1074.9767      
   1217.6538      
   1060.0441      
   1097.0193      
   1106.6554      
   1143.7042      
   1180.8060      
   1205.5913      
   1224.8969      
   1278.6649      
   1176.8953      
   1238.8152      
   1249.8806      
   1227.9083      
   1305.1353      
   1207.3807      
   1130.5653      
   1303.9093      
   1332.9629      
   1414.6823      
   1416.1204      
   1509.2515      
   1541.3359      
   1537.2072      
   1509.4047      
   1508.0619      
   1580.5953      
   1717.8350      
   1684.2180      
   1694.0840      
   1657.6985      
   1736.2958      
   1943.7448      
   1874.4651      
   1921.1840      
   2019.1056      
   2053.2905      
   2124.6072      
   2193.2693      
   2201.9092      
   2127.6113      
   2255.0488      
   2410.5796      
   2344.2861      
   2354.4182      
   2438.1843      
   2472.9600      
   2532.4480      
   2581.8965      
   2529.6438      
   2627.1223      
   2516.6841      
   2764.5754      
   2706.0796      
   2871.8760      
   2975.1672      
   3010.7151      
   3062.6267      
   3018.2163      
   3062.7246      
   3079.0928      
   3119.2524      
   3202.7014      
   3122.3240      
   3423.0916      
   3320.9890      
   3397.6116      
   3574.2419      
   3747.5837      
   3785.8013      
   4127.4292      
   4267.3311      
   4314.1738      
   4195.8462      
   4076.5432      
   4053.4087      
   4004.0735      
   4334.7217      
   4763.5645      
   5117.6470      
   5542.5356      
   5933.2061      
   6254.0361      
   6770.0635      
   7323.7246      
   8194.0439      
   9009.3486      
  10110.8857      
  11055.7363      
  12383.9883      
  13316.7422      
  13332.6025      
  12756.4727      
  12040.9961      
  11666.7178      
  11477.5439      
  10963.6582      
