  11100 18  1 01NYVO4.SP PYVO4  MS  .0000 # S1 031188 00.01   1         
  PROGRAM PE-CONVERT VERSION 02.30                                      
  USER MS  DATE & TIME  1988 03 18 12.59 19.82    1.6000    295K A       
 AU1 ND 100     0     0 YVO4            0.325000 - 0.840000 .00020       
 FILE NAME ON PE-3600 = 001 NYVO4.SP      ON PC = 001NYVO4.SP            
 NO_POINTS  =  2576.    pts   DATA_INTV = 0.000200 µm                    
 MIN_LAMBDA =  0.325000 µm     MIN_DATA =   0.                           
 MAX_LAMBDA =  0.840000 µm     MAX_DATA =   .598120E6                    
 SCANSPEED  = .015      µm/minSLITWIDTH =  0.00020 µmITA =   0.          
       RESP =   0.5     sec        ISMS =   0.       DATE=88/03/11       
       INST = 509.                    ? =   0.                           
 THIS IS ND:YVO4 SPECTRA FROM A SAMPLE PROVIDED BY MILT BIRNBAUM         
 THE SAMPLE IS MULTI-COLOR THAT IS NOT UNIFORM. SCATTERING LOSSES        
 AT THE SURFACE WERE LARGE BECAUSE OF POOR SURFACE QUALITY.INTERNA       
 LOSSES UNKNOWN. SEE NYVO3 FOR MORE COMMENTS. STORM                      
 shortside is A (or B) axis              (å polar or ordinary ray)       
 converted by Mark Storm. header added by hand                           
 ND:YVO4,1%ND,1.60MM THICK,BIRNBAUM,SHORT SIDE,STORM                     
  EOH     (1X,F11.4)                                                     
  2576.           
 356118.2500      
 357441.7188      
 404893.4063      
 356141.0938      
 442792.0625      
 468141.1563      
 357479.5625      
 598121.3125      
 339182.8750      
 433195.1875      
 352404.6250      
 351198.4375      
 399530.2188      
 421090.1563      
 364569.0313      
 379649.0000      
 424901.2813      
 460868.8750      
 529539.4375      
 511566.5938      
 402248.8750      
 575646.2500      
 379700.0313      
 417590.7500      
 448377.7188      
 411020.0938      
 575646.2500      
 381659.1875      
 402306.4063      
 358991.8125      
 414261.5625      
 364691.7188      
 351350.4063      
 402341.7813      
 359027.0938      
 575646.2500      
 411097.9063      
 414310.7188      
 405154.9688      
 379820.3125      
 486374.0000      
 575646.2500      
 529709.5000      
 405189.4688      
 438077.1563      
 399764.9688      
 486415.1875      
 476787.5625      
 425126.9375      
 383796.3125      
 367872.2813      
 397254.2500      
 438131.3750      
 438138.0938      
 429200.9688      
 408178.1250      
 468502.3438      
 497884.1875      
 575646.2500      
 468522.2188      
 360577.5000      
 390237.6875      
 575646.2500      
 443206.9063      
 575646.2500      
 402558.2188      
 378135.5938      
 402571.2188      
 425259.2813      
 433611.4375      
 425272.1563      
 575646.2500      
 448703.3438      
 411344.9063      
 388128.5625      
 383966.7188      
 381988.7813      
 399975.2500      
 575646.2500      
 369643.6250      
 334903.2813      
 369656.1875      
 323981.9688      
 333110.3125      
 333116.5625      
 301554.3125      
 284667.3750      
 271388.4688      
 254589.0469      
 245178.9375      
 240553.3281      
 226612.9844      
 219131.5156      
 207121.5781      
 198692.8906      
 189094.2188      
 175906.1719      
 169870.1875      
 158864.0625      
 154473.9375      
 147426.1250      
 139746.6250      
 132332.8281      
 128918.0625      
 121592.7578      
 115255.7969      
 109653.1563      
 105322.0547      
  98332.2578      
  94425.5703      
  89834.6016      
  86326.6016      
  81192.5625      
  77932.4844      
  73380.5625      
  69886.1016      
  68186.9375      
  65614.6406      
  61994.6250      
  58915.5664      
  56384.0898      
  54156.3086      
  51365.0586      
  49601.9023      
  46693.5820      
  45805.1523      
  44217.2344      
  40088.2305      
  38263.6719      
  37739.1875      
  36065.7969      
  35910.5313      
  33419.2266      
  32730.3770      
  32547.2246      
  31746.2988      
  30239.2598      
  29723.2148      
  28081.6348      
  28310.1172      
  30471.1016      
  33985.5273      
  36193.4531      
  40275.0508      
  44606.0039      
  54721.8633      
  69888.1797      
  90388.5391      
 100652.4297      
  82195.2891      
  60894.8750      
  49395.1133      
  43448.7305      
  40534.0273      
  41784.8945      
  42515.6680      
  42495.5078      
  42204.6367      
  42888.8945      
  46152.0977      
  47963.2422      
  47535.0508      
  42298.4180      
  36736.6797      
  32998.7891      
  31308.8535      
  31186.6074      
  30860.2793      
  29694.6992      
  29259.5527      
  30099.7285      
  30852.6895      
  33661.9258      
  36487.3867      
  36893.8047      
  35862.2461      
  31082.3535      
  29775.0957      
  26300.6719      
  26436.5137      
  27252.0762      
  27529.6211      
  27574.6016      
  28344.1641      
  33862.2422      
  35434.4570      
  38039.6133      
  31328.0918      
  23178.6543      
  19453.0137      
  19352.7129      
  19808.9648      
  20899.8047      
  19601.4492      
  17016.7363      
  15389.4785      
  14566.9346      
  15850.1211      
  15954.3750      
  16141.8848      
  15091.1699      
  13073.8721      
   9574.0303      
   8603.4238      
   7633.2886      
   5798.4204      
   5915.9883      
   5812.6021      
   4852.5850      
   4783.3501      
   4204.1392      
   3530.6492      
   4424.4023      
   4686.7573      
   3648.9006      
   3944.4500      
   3667.2847      
   2928.0527      
   4691.5767      
   3477.4268      
   2829.9788      
   3202.5017      
   2888.4070      
   2875.0879      
   2776.8083      
   2683.1448      
   2893.2603      
   1402.9008      
   3234.4587      
   2168.2229      
   2407.6257      
   2323.3899      
   1303.2435      
   2005.1349      
   1763.1033      
   1292.3943      
   2755.0547      
   2514.5254      
   1284.6838      
   1895.3052      
   2585.6445      
   1759.0781      
   1274.4048      
   1417.5969      
   1513.7477      
   2310.2209      
   1908.4910      
   1904.0541      
   2036.1227      
   2856.8916      
   3937.8723      
   2456.0125      
   2124.0264      
   1246.1461      
   3003.6680      
   2000.2761      
   2931.7478      
   1578.7606      
   2815.2739      
   4441.7095      
   2423.6226      
   2017.0421      
   1530.0762      
   3185.3704      
   2320.9956      
   1787.8447      
   3445.1841      
   1424.5624      
   2033.2927      
   3111.9395      
   1202.4987      
   2861.0559      
   1659.3801      
   2124.5491      
   1702.6611      
   1991.9443      
   2295.7764      
   1322.3087      
   2308.4089      
   1823.9569      
   1648.5461      
   1963.7795      
   1547.4990      
   2196.3662      
   2006.7142      
   1520.3896      
   2036.7787      
   2133.2180      
   1680.9276      
   1759.3019      
   1894.7473      
   2087.6199      
   1788.8025      
   2452.9534      
   1469.2645      
   1791.9637      
   2081.0940      
   1699.2708      
   1646.4250      
   1628.5273      
   2339.1741      
   2153.5637      
   2104.6750      
   2931.8899      
   1901.7571      
   1403.6748      
   2681.2244      
   2605.2844      
   1663.5901      
   1632.5388      
   2184.0833      
   1470.3335      
   1296.0471      
   2076.8887      
   2181.8135      
   1311.8544      
   1659.3378      
   2285.6855      
   1990.5835      
   1235.9893      
   2011.3037      
   1464.8732      
   1173.6987      
   1711.9565      
   1807.4254      
   1375.6250      
   1535.8046      
   1409.1318      
   1704.4469      
   1725.6144      
   1589.8375      
   1142.3671      
   1458.0609      
   1348.8947      
   2089.7505      
   1200.3278      
   1550.9980      
   1480.7576      
   1610.5197      
   1666.4269      
   1409.1908      
   2040.7466      
   1559.7882      
   1907.9009      
   2095.4351      
   1323.2257      
   1709.1604      
   1235.1863      
   1869.0551      
   1881.3691      
   1933.0162      
   1526.8822      
   1739.3051      
   1183.0945      
   1563.5948      
   1771.7291      
   1314.7709      
   1257.7261      
   1621.1648      
   1424.9397      
   1619.4805      
   1237.1615      
   1033.5497      
   1153.4379      
   1381.7194      
   1476.2042      
   2011.0658      
   1556.9019      
   1244.1575      
   1494.3541      
   1246.7168      
   1492.5457      
   1931.1777      
   1586.1862      
   1476.7838      
   1419.5266      
   1414.2629      
   1374.3702      
   1616.2139      
   2068.6213      
   1138.3376      
   1870.0680      
   1516.8604      
   1390.2683      
   1057.0160      
   1211.1740      
   1141.2157      
   1715.9562      
   1841.1639      
   1731.2994      
   1025.3611      
   1664.0220      
   1580.4950      
   1445.1250      
   1387.8436      
   1664.1605      
   2072.6692      
   1840.3235      
    901.3143      
   1395.5480      
   1407.4506      
   1540.5643      
   1561.1390      
   1179.7876      
   1264.9203      
   2080.0413      
   1370.6550      
   1516.6035      
   1441.9146      
   1744.2500      
   1357.5519      
   1872.4369      
   1710.3782      
   1272.1625      
   1327.0996      
   1719.8937      
   1809.9672      
   1813.1221      
   1477.9878      
   1411.9644      
   1679.2058      
   1478.7502      
   1603.0844      
   1836.2772      
   1440.5577      
   1344.3593      
   1149.3086      
   1126.6085      
   1241.5813      
   1175.7975      
   1024.1981      
   1255.1312      
   1296.9797      
   1494.2823      
   1015.0165      
   1630.2289      
   1266.1321      
   1441.6835      
   1431.7656      
   1060.2806      
   1489.6610      
   1548.8914      
   1331.7086      
   1546.2700      
   1467.1592      
   1370.9075      
    991.2960      
   1463.1963      
   1418.6986      
   1150.4423      
   1252.3027      
   1622.1006      
   1573.1448      
   1321.4680      
   1066.5293      
   1629.5962      
   1451.0313      
   1471.2374      
    721.8304      
   1059.7899      
   1024.1287      
   1569.3345      
   1745.3884      
   1234.6039      
   1314.9417      
   1042.9641      
   1333.6458      
    864.7354      
   1395.4163      
   1269.1530      
   1241.9271      
   1210.4192      
   1437.0675      
   1668.8427      
   1201.8173      
   1329.3356      
   1418.3075      
   1598.0658      
   1290.5332      
   1487.1677      
   1253.2056      
   1605.0574      
    963.0498      
   1102.8572      
    930.1854      
   1340.3502      
   1373.2622      
   1333.0300      
   1284.2253      
   1459.1455      
   1807.6335      
   1676.2191      
   1843.5135      
   1625.5573      
   1905.4193      
   1428.3513      
   1186.1230      
    867.9891      
   1552.9569      
   1318.8607      
   1437.7405      
   1049.8545      
   1550.9288      
   1196.6580      
   1186.5074      
    842.8518      
   1445.4104      
   1374.9641      
   1679.4016      
   1302.9866      
   1335.7424      
   1004.1516      
   1182.3038      
   1490.0358      
   1432.4321      
    690.8326      
   1308.7954      
   1651.6078      
   1292.6313      
   1299.5687      
   1581.8702      
   1519.8563      
   1341.8268      
   1057.3361      
   1222.6368      
   1250.9789      
   1009.6270      
   1470.9922      
   1160.2473      
   1013.1628      
   1707.2772      
   1270.8818      
   1016.6703      
   1667.5503      
   1381.6420      
   1384.2163      
   1121.0128      
   1475.3318      
   1680.4006      
   1588.0894      
   1784.8521      
   2225.5125      
   2656.1094      
   5185.3789      
  13383.2021      
  28797.0078      
  13743.0830      
   4695.4946      
   3203.8811      
   2067.5317      
   1797.1895      
   1618.4503      
   1880.0358      
   1636.3783      
   1725.1326      
   2417.6636      
   2516.2305      
   2061.4707      
   1916.6063      
   2349.0876      
   2749.4331      
   3408.8992      
   3553.3694      
   2998.5359      
   2044.0356      
   1644.5054      
   1298.9277      
   1541.7708      
   1949.8312      
   1190.6666      
    766.8822      
    807.5458      
    682.5900      
   1285.9578      
    929.6688      
   1158.1631      
   1314.6062      
   1026.3687      
    832.9263      
    997.0641      
   1093.2872      
   1108.4833      
    706.6044      
    929.9391      
    915.2936      
   1083.8522      
    911.5232      
   1169.7058      
   1073.8744      
    986.7231      
   1142.6080      
   1140.6823      
    883.1199      
    906.7242      
    675.5623      
    627.0685      
    633.6296      
   1013.9630      
    858.8604      
    844.1925      
    592.1263      
    840.3241      
    457.2834      
    683.7290      
    893.9793      
    892.0309      
    788.1494      
    807.4135      
    958.4387      
   1028.8237      
   1077.9755      
    926.9922      
    899.5132      
    490.8866      
   1070.0137      
   1195.9697      
    934.0720      
    978.8602      
   1083.2968      
    894.0717      
    798.6802      
    707.6685      
    917.7877      
    737.5518      
    858.5382      
    560.0753      
    680.7091      
    640.6112      
    994.9199      
   1069.4895      
    613.4169      
    933.5140      
    804.1274      
    937.9152      
    935.8657      
    721.7230      
    923.2495      
    688.0024      
    902.1348      
    658.5164      
    791.9417      
    985.1410      
    953.3066      
    912.9930      
    838.7719      
    802.7662      
    665.2159      
    908.8796      
    970.4907      
    870.7316      
    877.1215      
    930.1919      
    974.8054      
    414.3439      
   1196.1465      
   1343.4055      
    979.0575      
   1121.5474      
    983.2914      
    972.6612      
   1076.8057      
   1019.3714      
    940.7568      
   1006.5690      
   1153.3248      
   1044.7648      
   1174.5452      
   1006.4382      
   1093.5599      
    862.0549      
   1084.9562      
   1364.1494      
   1421.7965      
   1308.4950      
   1220.9833      
   1398.0540      
   1310.4135      
   1342.3499      
   1293.1771      
   1586.0654      
   1721.1504      
   1783.3671      
   1841.3285      
   2158.3630      
   2156.0645      
   2287.9968      
   2764.2864      
   2761.9419      
   3079.1997      
   3345.1421      
   3740.6953      
   4237.0293      
   4051.5281      
   4147.2183      
   4055.5359      
   3432.1604      
   3447.4001      
   3339.1343      
   3371.9717      
   3149.5313      
   3270.2366      
   3709.4460      
   3379.9036      
   3448.0479      
   3295.7439      
   3126.2607      
   3084.3379      
   2797.4197      
   2655.4333      
   2831.9092      
   3136.0647      
   2805.2451      
   2772.2678      
   3313.3647      
   3042.9592      
   3150.1816      
   3310.3806      
   3356.3499      
   3169.1609      
   3263.3792      
   2857.6292      
   2868.2881      
   2761.0508      
   2749.8855      
   2621.0916      
   2657.8325      
   3079.2083      
   2788.0647      
   2620.0215      
   2774.4136      
   2541.1875      
   2595.2546      
   2289.0884      
   2023.1971      
   2171.7910      
   2139.1248      
   2089.2139      
   2125.6135      
   2218.1968      
   2519.0437      
   2694.8850      
   2810.0935      
   2450.8457      
   2530.8459      
   2868.0637      
   2830.6233      
   2432.2537      
   2291.1704      
   2159.0403      
   1962.6129      
   2029.0422      
   2151.6213      
   2634.4109      
   2889.0359      
   3359.9260      
   4198.9717      
   4191.8784      
   3528.4204      
   3024.9490      
   2140.3542      
   1995.6504      
   2053.4402      
   1865.9786      
   1970.9543      
   2110.5889      
   1481.7477      
   1954.8569      
   2167.7517      
   2299.1440      
   2387.4827      
   2758.4453      
   3474.3191      
   3006.4302      
   2533.3547      
   3378.4126      
   3402.1868      
   3092.3062      
   2897.3501      
   2916.5842      
   2778.7913      
   2933.2173      
   3057.3733      
   3247.5588      
   3253.7104      
   3545.8108      
   3626.9863      
   3324.8313      
   3502.5703      
   3455.8691      
   3422.4043      
   2972.5544      
   2847.7383      
   3440.8186      
   3345.7957      
   3673.5476      
   3843.3584      
   3368.5537      
   2575.3696      
   2092.8892      
   2262.7874      
   2104.9360      
   1968.9762      
   2017.9751      
   1839.3079      
   2236.8005      
   1744.1575      
   1485.2206      
   1078.9232      
   1148.4246      
   1124.6791      
   1050.1215      
    777.2085      
    909.7014      
   1072.1090      
    710.6379      
    775.5107      
    946.0012      
    892.7556      
    734.1900      
    820.1417      
   1079.5956      
    764.4592      
    913.7603      
    755.1455      
    836.8939      
    665.8527      
    428.2058      
    564.0868      
    544.7443      
    748.2051      
    766.6990      
    751.4901      
    875.3816      
   1016.4168      
   1170.4801      
    930.9333      
    599.8405      
    576.2657      
    674.5404      
    550.1291      
    753.5240      
    532.3890      
    550.7922      
    351.2899      
    507.8698      
    404.7322      
    276.6865      
    424.6906      
    510.1006      
    520.0897      
    580.4285      
    540.0595      
    550.0453      
    631.4002      
    632.9898      
    596.7849      
    560.5906      
    453.1810      
    505.0417      
    590.5170      
    491.4341      
    669.2651      
    465.2527      
    651.3997      
    762.2952      
    604.1417      
    576.3232      
    510.7923      
    550.0855      
    589.3944      
    637.1286      
    722.7253      
    648.6329      
    692.1924      
    651.7280      
    754.1501      
    709.4423      
    509.5234      
    813.4815      
    844.5025      
    656.7570      
    603.7224      
    659.8184      
    686.5535      
    688.0790      
    933.7652      
    720.5403      
    890.4241      
    673.1583      
    712.4811      
    718.1976      
    837.5027      
    759.0557      
    655.5197      
   1006.4608      
    805.6351      
    773.4789      
    720.3306      
    717.6196      
    938.0005      
   1015.4476      
   1050.7126      
    904.5377      
   1222.8894      
   1067.8536      
   1200.4495      
   1435.2197      
   1406.9630      
   1361.7302      
   1776.2844      
   1607.0875      
   1336.4393      
   1631.3291      
   1641.3228      
   1775.0825      
   1699.6985      
   1765.1895      
   1903.4778      
   2140.8066      
   1773.8276      
   2195.3003      
   2330.1985      
   2612.3921      
   2410.7109      
   2727.9397      
   3160.1880      
   3240.2815      
