  11100 16  1   EDFLLF10 PLLF01 EDF  .000 # S1 090794 00.01   1        
  PROGRAM LAMBDA-9   VERSION 02.31                                     
  USER EDF DATE & TIME  1994 10 12 18.49 37.06    9.3470    295K P     
 AU1 TM 500HO  50     0 LILUF4           .725000 -  .850000 .00005     
 FILE NAME                                ON PC = EDFLLF10.DX          
 NO_POINTS  =  2501.    pts   DATA_INTV =  .000050 æm                  
 MIN_LAMBDA =   .725000 æm     MIN_DATA =    .02290                    
 MAX_LAMBDA =   .850000 æm     MAX_DATA =   2.86790                    
 SCANSPEED  = .03000000 æm/min SLITWIDTH=   .00040 æm                  
  RESP TIME =   .2      sec SENSITIVITY = 5          DATE=94/09/07     
 Ho(.5)Tm(5)LiLuF4,slit=.4,scan sp=30,resp=.2,int=.05,pol=p (469)      
 Sample from Lightning Optical Corporation. Purchase order L53365D     
 Height=.298 inches, Width=.233 inches, length=.368 inches.            
 C-axis was along the .298 Height direction.  Sample was placed        
 in the sample compartment chamber of the Perkin-Elmer Lambda-9        
 with the c-axis pointing up.                                          
  This spectra is part of Database LASERS
 Database LASERS was created by Pat Cross working 
 at NASA Langley Research Center, Internal Operations Group,
 Aerospace Electronics Systems Division, Remote Sensing 
 Technology Branch. phone:(757)864-1633   fax:(757)864-7894 
     e-mail p.l.cross@larc.nasa.gov 
     homepage http://aesd.larc.nasa.gov/laser/dbmain.htm
  EOH     (1X,F11.4)                                                   
  2501.         
    173.4479    
    175.9114    
    172.9553    
    171.9700    
    169.0139    
    172.9555    
    169.9994    
    162.6092    
    168.0288    
    173.9411    
    165.5655    
    164.5801    
    164.5802    
    164.5802    
    162.6096    
    171.4781    
    175.9123    
    181.8246    
    178.3759    
    166.0587    
    155.8951    
    155.8918    
    162.6101    
    161.1321    
    161.1321    
    164.0883    
    156.6980    
    157.1908    
    159.1617    
    158.1763    
    155.8620    
    159.6545    
    160.1473    
    168.5231    
    163.5963    
    171.4794    
    165.5671    
    155.8388    
    163.5965    
    176.4064    
    161.6259    
    159.1625    
    157.1917    
    155.8190    
    155.8156    
    155.8123    
    155.8090    
    155.8057    
    155.8024    
    160.6410    
    155.7958    
    155.7925    
    162.6120    
    166.0609    
    160.1486    
    165.5683    
    168.0318    
    155.7726    
    158.1781    
    157.6855    
    155.7627    
    159.1637    
    159.1638    
    168.0322    
    170.9885    
    162.1201    
    155.7428    
    156.7006    
    155.7362    
    155.7329    
    162.1204    
    161.1351    
    155.7229    
    155.7196    
    155.7163    
    159.6572    
    155.7097    
    161.6282    
    167.5405    
    164.0917    
    165.0771    
    168.5261    
    158.1796    
    155.7163    
    157.6871    
    155.6799    
    155.6766    
    158.1799    
    166.5557    
    155.6666    
    155.6633    
    155.6600    
    155.6567    
    160.1511    
    155.6501    
    160.6439    
    174.9320    
    173.4539    
    165.5710    
    158.6734    
    157.1954    
    155.6269    
    155.7175    
    155.6203    
    155.6170    
    157.1957    
    166.0642    
    168.0350    
    159.1667    
    155.6004    
    155.5971    
    155.5938    
    155.5905    
    162.1231    
    158.6743    
    155.5806    
    156.7036    
    161.6307    
    167.0503    
    166.0650    
    168.5285    
    168.0359    
    164.5870    
    162.1237    
    155.5508    
    162.1238    
    160.6458    
    155.5408    
    155.5375    
    155.5342    
    156.2119    
    155.5276    
    155.5243    
    161.6317    
    170.5002    
    166.5586    
    164.5879    
    159.6611    
    155.5044    
    155.5011    
    157.6906    
    164.5882    
    162.1249    
    155.4879    
    155.4846    
    157.1982    
    169.0228    
    165.0813    
    157.6911    
    160.6472    
    157.6912    
    155.4614    
    155.4581    
    155.4548    
    160.6476    
    162.6184    
    162.6185    
    155.4415    
    166.5601    
    155.4349    
    155.4316    
    157.6919    
    155.4250    
    156.2139    
    155.4184    
    155.4150    
    165.0825    
    158.6776    
    155.4051    
    155.4018    
    155.3985    
    171.9805    
    173.4586    
    170.0099    
    170.5026    
    163.1124    
    155.3786    
    155.7222    
    168.0394    
    155.3687    
    156.2150    
    157.2004    
    155.3587    
    155.3554    
    155.3521    
    160.1568    
    155.3455    
    155.3422    
    155.3389    
    155.3356    
    155.3323    
    160.1572    
    155.7231    
    155.3223    
    164.5915    
    165.0843    
    170.9967    
    156.7087    
    162.6211    
    165.0845    
    176.9093    
    161.6359    
    160.6505    
    163.1141    
    163.6068    
    162.6215    
    171.4900    
    166.0704    
    170.9975    
    170.0121    
    169.5194    
    165.0853    
    164.5926    
    161.1439    
    175.4319    
    182.3298    
    176.9102    
    163.6077    
    157.6954    
    155.2363    
    163.1152    
    157.2029    
    175.4324    
    175.4325    
    172.4765    
    169.0277    
    155.2131    
    161.1448    
    165.5791    
    172.4768    
    162.1304    
    161.6378    
    175.4330    
    179.8674    
    175.9259    
    172.4772    
    169.5210    
    178.8822    
    159.1748    
    160.6528    
    163.1164    
    168.0433    
    165.0872    
    170.0142    
    181.3461    
    170.9998    
    167.5509    
    179.3755    
    163.6096    
    171.4927    
    185.2881    
    182.8246    
    181.3466    
    174.9417    
    182.3322    
    170.5077    
    166.0735    
    177.4054    
    184.3031    
    180.3616    
    185.2887    
    171.9861    
    171.4935    
    177.8985    
    169.0301    
    173.4644    
    179.8694    
    170.0157    
    169.0303    
    174.4500    
    181.3477    
    173.9574    
    187.2602    
    191.2017    
    185.7821    
    179.8700    
    187.7531    
    187.7531    
    183.3190    
    185.7824    
    193.6655    
    182.8265    
    182.3339    
    169.5239    
    180.8559    
    181.8413    
    176.9146    
    183.3196    
    190.7099    
    196.1297    
    196.1297    
    187.7540    
    190.7102    
    186.7687    
    187.2615    
    184.7981    
    174.9444    
    173.9590    
    178.3933    
    181.3495    
    181.8422    
    186.2765    
    188.7401    
    191.2036    
    197.1159    
    203.0282    
    198.1014    
    174.9451    
    188.7405    
    196.1309    
    196.6236    
    192.1894    
    191.2041    
    181.3504    
    182.8285    
    191.6970    
    190.2189    
    190.2190    
    187.2630    
    200.5656    
    202.0437    
    199.5804    
    192.1901    
    182.8291    
    181.3511    
    177.9024    
    181.3512    
    170.0194    
    176.9172    
    187.7563    
    195.1467    
    189.2346    
    189.7273    
    178.3954    
    182.3371    
    197.6105    
    195.1471    
    188.7423    
    182.3374    
    183.8155    
    181.3521    
    179.8741    
    188.7426    
    188.2499    
    187.7572    
    185.7865    
    196.6259    
    196.6259    
    186.7721    
    196.6261    
    186.7722    
    198.1042    
    204.5093    
    196.6263    
    185.7871    
    195.6410    
    206.4803    
    202.5388    
    206.4804    
    207.4657    
    198.1048    
    198.1048    
    198.1049    
    192.1926    
    184.3097    
    193.6708    
    188.2513    
    194.1636    
    205.9883    
    213.8713    
    217.8130    
    210.4227    
    199.5835    
    197.1202    
    201.5544    
    194.1641    
    201.5546    
    204.0180    
    210.9157    
    205.0036    
    203.5255    
    208.4525    
    204.0183    
    194.1646    
    191.7012    
    188.7452    
    204.0186    
    208.9456    
    218.7994    
    213.3799    
    219.7849    
    223.2337    
    216.8290    
    207.4678    
    203.5264    
    214.8583    
    213.8730    
    205.4974    
    204.5121    
    191.7022    
    200.5706    
    209.4391    
    219.2930    
    215.3515    
    205.9905    
    198.6002    
    212.8882    
    222.2495    
    219.7860    
    210.9176    
    214.3666    
    230.1327    
    226.6839    
    216.8303    
    213.8741    
    220.7718    
    220.2792    
    223.2354    
    218.8013    
    223.2355    
    221.2648    
    223.2356    
    235.0603    
    227.1773    
    234.0750    
    236.5386    
    230.1337    
    231.1191    
    241.9583    
    243.9291    
    236.5389    
    217.8167    
    229.6413    
    226.6852    
    231.1196    
    222.2512    
    234.0758    
    245.9003    
    236.0466    
    226.1929    
    234.0760    
    247.3786    
    239.4957    
    230.6273    
    235.5543    
    257.2327    
    263.6378    
    252.3059    
    239.9887    
    240.4815    
    241.9597    
    243.9305    
    250.8281    
    255.7552    
    252.7991    
    250.8283    
    244.9162    
    246.8870    
    262.1604    
    257.2336    
    251.8140    
    251.8141    
    267.0875    
    269.5511    
    260.6827    
    280.3904    
    285.3173    
    265.1171    
    267.5806    
    267.0879    
    260.1905    
    269.0590    
    269.0590    
    268.5663    
    264.1321    
    290.7375    
    284.3326    
    273.4935    
    273.0009    
    289.7523    
    286.7963    
    291.7233    
    301.5771    
    299.6064    
    297.1429    
    295.1723    
    298.1284    
    291.2310    
    287.7822    
    294.1872    
    288.7676    
    293.6946    
    295.6655    
    308.4755    
    306.9973    
    292.7094    
    294.1876    
    302.0707    
    310.4464    
    298.6220    
    295.1732    
    299.6075    
    304.5344    
    315.8664    
    321.2860    
    305.0274    
    301.0859    
    301.5786    
    300.5933    
    304.0422    
    317.8376    
    321.7791    
    312.9108    
    299.1155    
    306.0132    
    308.9695    
    299.1157    
    294.6815    
    300.5939    
    311.9259    
    306.9989    
    305.5210    
    306.9991    
    331.1410    
    330.6483    
    322.7654    
    325.7215    
    328.1851    
    315.3752    
    331.1414    
    335.0830    
    343.9514    
    341.9807    
    345.4296    
    347.4004    
    337.0540    
    336.5614    
    342.4736    
    358.2399    
    347.4007    
    343.9519    
    346.9081    
    352.3277    
    349.8643    
    360.7036    
    352.8207    
    363.1672    
    367.6014    
    367.1088    
    363.1674    
    353.8063    
    364.1529    
    371.0505    
    362.6750    
    370.0654    
    368.0947    
    365.1385    
    365.6314    
    365.6315    
    373.0218    
    383.3683    
    385.8319    
    387.3100    
    373.0220    
    383.3686    
    402.5835    
    392.2372    
    387.3103    
    386.8176    
    399.6277    
    388.2958    
    394.7009    
    396.1791    
    403.0768    
    393.2229    
    409.4818    
    415.3942    
    418.3503    
    418.3504    
    410.4674    
    410.9602    
    418.8432    
    420.3215    
    411.9457    
    420.3216    
    421.3069    
    422.2924    
    430.6683    
    434.1171    
    451.8539    
    453.3321    
    451.3614    
    449.8834    
    444.9566    
    447.9128    
    451.8543    
    457.2740    
    456.7814    
    461.7083    
    461.7084    
    469.5914    
    470.0843    
    471.5623    
    472.0552    
    475.5039    
    475.5040    
    471.5625    
    482.4018    
    480.9239    
    484.3727    
    491.2704    
    492.7486    
    494.7194    
    489.7925    
    491.7633    
    497.6758    
    498.1685    
    505.5589    
    510.9785    
    537.0912    
    519.8471    
    513.9348    
    514.9202    
    517.8765    
    523.7889    
    530.6866    
    537.5843    
    539.0624    
    552.8577    
    564.1896    
    562.2189    
    559.2628    
    576.0143    
    578.9706    
    580.4487    
    582.9122    
    586.3611    
    586.8539    
    582.4197    
    590.3029    
    612.9667    
    618.3862    
    609.5179    
    618.8791    
    623.3133    
    624.7914    
    641.0503    
    644.0065    
    644.0065    
    653.8603    
    652.8752    
    645.4848    
    647.9484    
    649.9191    
    654.3533    
    667.1633    
    667.6560    
    677.5101    
    676.5247    
    672.5833    
    688.3492    
    694.7544    
    709.0425    
    704.6083    
    699.6814    
    706.0864    
    713.4770    
    726.2869    
    729.7358    
    723.3307    
    735.6483    
    738.6044    
    736.1410    
    740.0826    
    751.4145    
    764.2245    
    758.8049    
    769.1516    
    766.1955    
    768.6589    
    757.3271    
    765.7029    
    789.8447    
    794.2790    
    794.7717    
    811.0306    
    793.7865    
    796.2501    
    804.1332    
    816.9432    
    820.8846    
    807.0894    
    818.4214    
    815.9579    
    834.6803    
    853.4025    
    859.8076    
    862.7637    
    864.2418    
    881.9788    
    869.1688    
    844.5345    
    848.9688    
    855.3737    
    860.7933    
    874.0962    
    877.0524    
    872.1254    
    869.1693    
    875.0817    
    889.3698    
    888.3845    
    890.8480    
    891.3407    
    896.7603    
    910.0630    
    909.0778    
    900.7021    
    900.7022    
    899.2242    
    907.5999    
    905.6292    
    914.0049    
    924.3516    
    944.0592    
    959.8253    
    946.5226    
    952.4352    
    946.0302    
    948.9863    
    956.3768    
    955.3915    
    944.0597    
    955.3917    
    974.1138    
    981.0115    
    984.9531    
    996.7778    
    990.8655    
    986.4315    
    988.4022    
    991.3584    
    990.3730    
   1004.6611    
   1007.1246    
   1016.9785    
   1019.9346    
   1015.9932    
   1022.8910    
   1044.5693    
   1044.0768    
   1046.0477    
   1045.0624    
   1059.8431    
   1063.7845    
   1067.2334    
   1077.5801    
   1071.6677    
   1081.0291    
   1093.3462    
   1086.4487    
   1104.1857    
   1117.4882    
   1108.6199    
   1106.6492    
   1110.5907    
   1126.8496    
   1139.6594    
   1141.6305    
   1143.1085    
   1160.3527    
   1161.3383    
   1161.8309    
   1173.1627    
   1184.9875    
   1190.8998    
   1190.8999    
   1191.8854    
   1184.0023    
   1201.2465    
   1229.8228    
   1228.3445    
   1243.1254    
   1230.3156    
   1227.3595    
   1256.9209    
   1265.7893    
   1263.8186    
   1272.1942    
   1289.4385    
   1304.7119    
   1313.5804    
   1315.0585    
   1338.2151    
   1343.1421    
   1349.0543    
   1358.9082    
   1363.8352    
   1363.8352    
   1371.2256    
   1377.1381    
   1385.0211    
   1400.7874    
   1414.5825    
   1411.1338    
   1417.0460    
   1434.7831    
   1449.5638    
   1460.8958    
   1472.2277    
   1488.4865    
   1487.0084    
   1502.2819    
   1522.4822    
   1533.8141    
   1542.6826    
   1550.0730    
   1559.9269    
   1570.2734    
   1558.4489    
   1577.6639    
   1605.2546    
   1629.3964    
   1638.2648    
   1647.1333    
   1656.0018    
   1661.4215    
   1672.7534    
   1693.9391    
   1712.1688    
   1728.4275    
   1714.1395    
   1723.9933    
   1740.2523    
   1773.7551    
   1767.8430    
   1771.7844    
   1788.0435    
   1800.8533    
   1823.0244    
   1832.8783    
   1852.0934    
   1854.0640    
   1880.6694    
   1897.4209    
   1902.3479    
   1936.3435    
   1938.8070    
   1959.5000    
   1961.4709    
   1978.2224    
   1996.4519    
   2005.3203    
   2025.5209    
   2048.6772    
   2043.2578    
   2066.9070    
   2091.0488    
   2108.2930    
   2118.6394    
   2110.7566    
   2132.9277    
   2151.6499    
   2159.5330    
   2177.2698    
   2214.2217    
   2227.5242    
   2236.8855    
   2262.5054    
   2279.7495    
   2284.1838    
   2293.5452    
   2330.0039    
   2365.4778    
   2380.2585    
   2392.0833    
   2400.9517    
   2429.5278    
   2440.3669    
   2463.5234    
   2486.6799    
   2510.3291    
   2535.9490    
   2558.1201    
   2580.7839    
   2596.5500    
   2610.3452    
   2650.7461    
   2682.2783    
   2677.8440    
   2699.5225    
   2714.3035    
   2737.9524    
   2763.0796    
   2786.7290    
   2803.9729    
   2834.5200    
   2881.8181    
   2878.3694    
   2913.8430    
   2926.6531    
   2941.9265    
   2983.8049    
   3012.3811    
   3036.5232    
   3062.1428    
   3089.2410    
   3119.2952    
   3141.9587    
   3163.1445    
   3189.7498    
   3218.3259    
   3221.7749    
   3240.4968    
   3259.2195    
   3288.2881    
   3338.0498    
   3352.3379    
   3383.8701    
   3437.5732    
   3433.6318    
   3476.0032    
   3486.3496    
   3511.9697    
   3546.9507    
   3568.6292    
   3616.4202    
   3640.5620    
   3653.3718    
   3668.6453    
   3699.6848    
   3732.2024    
   3765.7053    
   3769.6470    
   3806.5986    
   3860.7947    
   3882.4734    
   3910.5566    
   3935.6836    
   3949.4790    
   3962.2891    
   3979.0405    
   4021.9048    
   4059.3494    
   4083.4910    
   4101.2280    
   4125.8623    
   4142.6138    
   4156.4092    
   4190.8975    
   4244.6011    
   4263.3232    
   4318.9971    
   4348.0659    
   4371.2222    
   4391.4229    
   4430.8379    
   4449.5601    
   4469.7607    
   4499.8145    
   4507.6978    
   4587.0205    
   4606.2358    
   4645.1582    
   4679.1538    
   4732.8574    
   4736.7988    
   4767.3452    
   4768.8237    
   4805.7754    
   4846.6689    
   4873.7666    
   4925.4995    
   4984.6221    
   4994.4761    
   5036.8477    
   5089.0723    
   5131.9365    
   5172.8296    
   5208.3032    
   5241.3140    
   5250.1821    
   5290.0903    
   5363.0078    
   5428.0435    
   5460.5610    
   5508.8447    
   5562.0552    
   5629.0610    
   5653.2026    
   5691.6328    
   5768.4922    
   5841.9033    
   5903.9824    
   5965.0757    
   6015.3301    
   6068.0479    
   6143.9224    
   6193.1914    
   6298.1343    
   6380.9063    
   6418.3506    
   6454.8096    
   6511.9619    
   6609.5142    
   6743.0337    
   6778.9995    
   6812.5029    
   6940.6021    
   7032.7354    
   7138.6636    
   7255.9238    
   7361.3594    
   7419.0044    
   7508.6733    
   7637.2656    
   7711.6621    
   7794.9263    
   7963.4268    
   8094.4819    
