  11100 13  1 ##LUAG7.SP PUC001 BMW  .000 # SI 060593 00.00   2        
  PROGRAM PE-FILECONVERT MAC VERSION 1.0                               
  USER BMW DATE & TIME  1993 03 12 00.10 16.00    9.9300    295K U     
 AU1 TM  50     0     0 LUAG            1.000000 - 1.400000 .00020     
 FILE NAME ON IBM-PC  = LUAG7.SP          ON MAC= P12033.02            
 NO_POINTS  =  2001.    pts   DATA_INTV =  .00020 _m                   
 MIN_LAMBDA =  1.000000 _m     MIN_DATA =    .60200                    
 MAX_LAMBDA =  1.400000 _m     MAX_DATA =    .84820                    
 SCANSPEED  = 15.000000 nm/min SLITWIDTH=   .20000 nmITA =   0.        
       RESP =    .500  sec        ISMS =   0.       DATE=93/05/06      
       INST = 509.                    ? =   0.                         
 ITHACA CORP SAMPLE                                                    
 0:10:17  12-03-1993                                                   
  This spectra is part of Database LASERS
 Database LASERS was created by Pat Cross working 
 at NASA Langley Research Center, Internal Operations Group,
 Aerospace Electronics Systems Division, Remote Sensing 
 Technology Branch. phone:(757)864-1633   fax:(757)864-7894 
     e-mail p.l.cross@larc.nasa.gov 
     homepage http://aesd.larc.nasa.gov/laser/dbmain.htm
  EOH.(1X,F11.4)                                                       
  2001.         
     72.9420    
    118.8751    
    152.7999    
     17.5409    
     68.1822    
    121.3666    
     63.3838    
    123.8148    
     92.3881    
    165.0282    
     53.8000    
     80.3641    
    140.8438    
     68.3268    
     68.3412    
     10.5155    
     37.0177    
     20.1712    
     32.2315    
     94.9812    
     66.0177    
     32.2760    
      0.0001    
     90.2138    
     78.1525    
     27.5246    
    153.1785    
     15.5188    
     54.0865    
    143.5374    
     71.0083    
    100.0079    
    119.3715    
     71.0517    
    114.5633    
    141.2052    
     44.5637    
     75.9423    
     44.5950    
     54.2550    
     13.3131    
     51.8742    
     22.9750    
     71.2083    
     73.6384    
     71.2384    
     95.4058    
     90.5888    
     83.3583    
    102.7058    
    131.7535    
    136.6130    
    175.4110    
    243.4786    
     32.7942    
     25.5844    
     28.0090    
     13.5798    
      0.0001    
      0.0001    
      0.0001    
     23.2731    
     64.2605    
     28.1160    
     95.6856    
     88.4532    
     52.2617    
    139.2758    
    129.6051    
    173.2423    
    144.1710    
    122.3956    
     98.2273    
    100.6606    
     64.4508    
      0.0001    
     21.0894    
      4.2586    
      4.2754    
     16.3190    
     59.7075    
     71.7938    
     30.8163    
     64.5881    
     83.9152    
     30.8608    
     91.1893    
     91.2062    
     11.6410    
    168.6996    
     74.3457    
     86.4361    
      0.0001    
      0.0001    
      0.0001    
      0.0001    
      6.9533    
      0.0001    
      0.0001    
      0.0001    
     40.7272    
     45.5587    
    103.5154    
     91.4462    
      2.2667    
     74.5711    
     81.8298    
     89.0863    
    127.7977    
     62.5637    
     50.5238    
     77.0727    
     79.5023    
     69.8615    
    166.6502    
     14.4616    
     91.6404    
     96.4865    
     28.9492    
     45.8354    
    161.8900    
     74.8108    
     55.5178    
    103.8292    
     48.3203    
     67.6269    
      0.0001    
      0.0001    
     74.9169    
     60.4468    
     70.1120    
      5.0691    
     46.0280    
    118.4899    
     84.6578    
     50.8909    
     87.1100    
      0.0001    
    113.7193    
     34.0797    
     87.1643    
     75.1024    
      0.0001    
      0.0001    
     17.2946    
     48.6235    
     63.1116    
     94.5156    
      0.0001    
    133.2471    
     92.1469    
    164.7728    
    121.1878    
    164.8043    
    176.9454    
    169.6814    
     77.7427    
    118.8413    
     72.9372    
      0.0001    
    106.7918    
     22.3524    
     19.9682    
      7.9441    
      0.0001    
     27.2337    
     68.2292    
     24.8536    
    165.0234    
      0.0001    
      0.0001    
    123.8861    
    102.1266    
    145.7030    
    136.0304    
     15.3350    
     65.9635    
    174.8504    
     39.4629    
     70.8336    
      0.0001    
      8.2035    
      1.0012    
      5.8257    
     80.5605    
     70.9120    
     25.1277    
     17.9146    
    136.2298    
    138.6714    
    165.3332    
    104.8199    
    143.5543    
    206.6451    
     61.3908    
    133.9057    
    148.4578    
     59.0200    
     51.8032    
     92.8488    
      0.0001    
     78.3851    
      0.0001    
     39.8262    
    102.5851    
    112.2779    
    102.6129    
    112.3008    
     61.5919    
    180.1624    
     59.2078    
     68.8725    
    148.6815    
     83.3860    
     73.7409    
    155.9948    
     32.7786    
     66.5441    
     64.1473    
      3.9296    
    143.9533    
     35.2534    
      0.0001    
    119.7809    
     71.4710    
     25.6758    
     66.6742    
     23.2959    
    134.3746    
     86.0250    
      0.0001    
    105.3823    
     66.7549    
      0.0001    
    136.8813    
     23.4101    
      1.7648    
    103.0497    
    117.5746    
     57.2056    
     98.2526    
    103.1124    
    107.9529    
     95.8834    
     62.0941    
     88.6618    
      6.7143    
      4.3223    
    103.2066    
     91.1302    
     98.3998    
     76.6702    
     74.2698    
    149.2523    
     98.4528    
     79.1420    
    142.0237    
     98.4951    
     26.1350    
    156.6046    
     84.0394    
     55.0916    
     23.7863    
      0.0001    
     33.4436    
     38.2770    
      0.0001    
     74.4759    
      0.0001    
      0.0001    
      2.2354    
      9.4609    
    154.3592    
     28.7484    
     91.4728    
    118.0806    
    195.6534    
     60.1361    
     98.7822    
     45.6959    
     98.8063    
     65.0169    
      0.0001    
     24.0675    
     45.7645    
     19.2772    
      7.2607    
      0.0001    
      0.0001    
     38.6017    
     60.3143    
     45.8547    
    108.6373    
     89.3214    
    178.9051    
    137.7141    
     99.0247    
    142.5859    
     67.6582    
     48.3792    
    103.9100    
      0.0001    
     33.9570    
    101.5354    
      0.0001    
      0.0001    
      0.0001    
     12.3557    
      0.0001    
      9.9738    
     87.1305    
    133.0828    
     82.3276    
     36.5186    
     65.4577    
      5.2420    
     72.7228    
    106.5589    
     72.7493    
    108.9957    
    169.5507    
      0.0001    
    121.1311    
     14.9710    
     55.9415    
     53.5460    
     46.3240    
     58.3903    
    106.7013    
    104.2998    
     87.3946    
     84.9905    
     68.1087    
     65.7118    
     68.1352    
     92.2892    
    104.3855    
     44.0596    
     44.0764    
      0.0001    
     32.0487    
     75.4676    
     51.3578    
     87.5706    
     73.0914    
     46.5694    
     22.4991    
     87.6177    
     53.8494    
     17.7235    
     29.7727    
      0.0001    
     22.5772    
     82.8688    
     73.2240    
    128.8234    
      0.9688    
    111.9157    
    145.8106    
    124.0407    
     46.7692    
     97.4624    
    165.2473    
    111.9906    
    126.5207    
    194.4060    
     56.4941    
     87.8781    
    196.8729    
    104.8151    
     61.3619    
     90.3452    
     49.3335    
     10.8158    
     46.9509    
    155.7238    
     37.3376    
     90.4188    
      6.0670    
     90.4465    
    138.8286    
     73.5746    
    129.1750    
    165.5208    
     90.5116    
    131.6315    
     47.1001    
     47.1121    
    107.4786    
     27.8696    
     18.2510    
     97.8521    
     27.9105    
     68.8990    
     76.1508    
    105.1494    
     59.2860    
    100.3385    
     83.4414    
    211.8405    
    192.4255    
    233.7529    
    243.4993    
     61.7882    
    129.4553    
     81.1198    
    170.6657    
    144.0186    
     85.9900    
     16.0847    
     59.4630    
     13.7023    
    136.8148    
    122.3050    
    168.3376    
    161.0755    
     33.0239    
     93.3433    
    110.2716    
    110.2837    
    100.6281    
    124.8235    
     71.6722    
    214.5728    
     83.7681    
     88.6172    
     52.4302    
     54.8545    
     47.6332    
     81.4199    
     21.1627    
     81.4428    
     79.0419    
     62.1627    
    110.4768    
    129.8359    
    180.7365    
    197.7421    
    141.9790    
    120.2084    
    146.8481    
    163.8227    
    112.9901    
     88.8355    
     67.1198    
    134.8025    
    120.2965    
    127.5693    
    156.6433    
    149.3854    
    120.3485    
    130.0377    
     93.7847    
    144.5918    
    163.9885    
     45.5611    
    154.3168    
    149.4833    
    125.2849    
     26.3369    
     79.3890    
     98.7183    
     72.1685    
     79.4216    
     86.6796    
    164.1229    
    110.8703    
    115.7211    
    181.1375    
     62.6107    
    101.2470    
     96.4299    
    125.4576    
     98.8654    
     77.1426    
    200.6386    
     77.1703    
     41.0075    
    207.9672    
     79.6252    
    132.8133    
    106.2186    
     62.7648    
     77.2510    
    132.8592    
    208.0484    
    149.8377    
     77.3053    
    149.8643    
    157.1430    
     77.3390    
     91.8357    
    169.2977    
     74.9627    
    149.9332    
     94.3070    
    171.7711    
     77.4246    
     82.2589    
    120.9426    
    166.9697    
    130.6491    
    210.6868    
    135.5095    
    150.0506    
    266.6797    
    167.0412    
     99.2792    
    104.1285    
    106.5541    
     26.9500    
    116.2463    
     55.8898    
     60.7261    
     92.1180    
     41.4646    
     80.0628    
     94.5663    
    116.3345    
    172.0508    
     60.8068    
    121.2023    
    230.3708    
    167.2433    
    223.1009    
    208.5263    
    191.5359    
    123.6965    
    193.9903    
    160.0445    
    172.1743    
     82.6506    
     70.5987    
     89.9268    
     51.3290    
     85.1159    
    198.9399    
    155.2883    
    186.8304    
    160.1607    
    215.9912    
    143.2254    
    206.3018    
    216.0301    
    230.6270    
    196.6183    
    150.5525    
    138.4526    
    162.6839    
    145.7393    
    136.0679    
     25.0279    
    172.4286    
     82.9122    
     87.7575    
    150.6553    
    194.3151    
    143.4117    
    153.1096    
    211.3516    
    240.5432    
    194.3793    
    313.7035    
    301.5028    
    148.3356    
    282.0171    
    226.0204    
    165.3332    
    177.4735    
    133.8646    
    148.4021    
    262.5854    
    250.4205    
    158.1266    
    228.5446    
    213.9734    
    201.8354    
    265.0922    
    228.5943    
    238.3321    
    199.4480    
    184.9002    
    238.3649    
    284.6541    
    216.5045    
    211.6537    
    134.0580    
    214.1093    
    187.4047    
    143.7780    
    189.8537    
    158.3384    
    182.5948    
    238.4937    
    245.8033    
    185.0553    
    304.3302    
    248.2716    
    306.7898    
    277.5301    
    265.3525    
    338.5849    
    323.9351    
    277.5678    
    323.9547    
    292.2265    
    231.3386    
    311.7758    
    250.8313    
    245.9746    
    404.8197    
    348.4823    
    333.8217    
    299.6384    
    263.0719    
    373.0092    
    331.4210    
    333.8767    
    333.8925    
    219.3260    
    358.3723    
    326.5912    
    243.6864    
    353.5165    
    285.1217    
    270.5084    
    331.5345    
    287.5948    
    292.4872    
    373.1609    
    277.8770    
    307.1616    
    304.7312    
    287.6618    
    304.7507    
    336.5279    
    231.6762    
    290.1474    
    356.1239    
    297.4867    
    427.2436    
    292.6260    
    437.0964    
    383.1145    
    422.3797    
    520.8422    
    419.9439    
    329.3233    
    476.5114    
    417.5231    
    368.4971    
    363.6156    
    302.5094    
    361.1906    
    444.5937    
    265.9705    
    385.7134    
    270.8636    
    270.8758    
    375.9457    
    373.5070    
    368.6206    
    398.0363    
    331.9421    
    402.9641    
    508.7284    
    429.9905    
    459.4912    
    437.3810    
    442.3013    
    454.6109    
    354.0406    
    385.8921    
    403.0584    
    344.2932    
    376.1170    
    417.8222    
    329.6490    
    444.8637    
    447.3258    
    486.7142    
    481.7953    
    508.9180    
    531.1278    
    555.8450    
    511.4126    
    536.0995    
    588.0286    
    444.9680    
    575.6768    
    440.0754    
    481.9060    
    449.9295    
    469.6177    
    413.1039    
    454.8823    
    481.9552    
    526.3472    
    511.5493    
    516.4988    
    603.0264    
    506.6539    
    538.7429    
    575.8275    
    575.8398    
    563.4843    
    504.2449    
    489.4619    
    575.8843    
    565.9968    
    605.6143    
    546.2498    
    491.9836    
    452.6132    
    479.6867    
    457.5556    
    598.2436    
    553.7250    
    546.3239    
    677.6917    
    670.2460    
    715.0419    
    692.6508    
    762.4547    
    615.6748    
    687.7025    
    727.5542    
    707.6396    
    655.4214    
    675.3092    
    717.6318    
    655.4499    
    652.9820    
    690.2753    
    615.7825    
    737.6260    
    807.5850    
    707.7453    
    765.1093    
    707.7639    
    700.3073    
    772.6301    
    730.2192    
    737.7094    
    707.8136    
    745.2174    
    740.2362    
    772.6974    
    762.7214    
    770.2176    
    735.2913    
    663.1158    
    800.2486    
    730.3337    
    810.2793    
    745.3170    
    772.7934    
    693.0149    
    757.8295    
    770.3298    
    867.9916    
    725.4335    
    750.3867    
    762.8735    
    730.4495    
    730.4632    
    790.3902    
    827.9440    
    805.4233    
    822.9523    
    880.6509    
    915.8568    
    865.6066    
    835.5220    
    946.1047    
    873.1674    
    893.2741    
    878.2155    
    865.6681    
    936.0753    
    981.4745    
    936.0967    
    973.9170    
    933.5991    
    981.5123    
   1082.7420    
   1042.2072    
   1159.0250    
   1174.3164    
   1087.8630    
   1204.9451    
   1302.1771    
   1240.7243    
   1279.1292    
   1189.6784    
   1291.9614    
   1358.7320    
   1248.4553    
   1325.3450    
   1317.6511    
   1230.5842    
   1397.4040    
   1474.8653    
   1480.0510    
   1456.7910    
   1511.1450    
   1602.0572    
   1724.7954    
   1769.3842    
   1800.9134    
   1919.5750    
   1843.0420    
   1864.1420    
   1985.8321    
   1935.4910    
   1975.2410    
   1914.3550    
   2020.3940    
   2020.4014    
   2057.6590    
   2039.0423    
   2081.6572    
   2068.3403    
   2167.1690    
   2161.8280    
   2215.4384    
   2339.2740    
   2239.6270    
   2255.7620    
   2274.6044    
   2339.3151    
   2350.1281    
   2296.1794    
   2242.3760    
   2245.0700    
   2253.1420    
   2169.9753    
   2132.5340    
   2071.1700    
   2167.3300    
   2253.1910    
   2280.1103    
   2317.8491    
   2334.0470    
   2320.5650    
   2431.4794    
   2464.0720    
   2523.9490    
   2529.4040    
   2578.5380    
   2633.2710    
   2679.9152    
   2707.4091    
   2798.3730    
   2790.0942    
   2795.6252    
   2859.2680    
   2934.2260    
   2779.0961    
   3048.5974    
   3040.2192    
   3023.4580    
   3166.4440    
   3068.2290    
   3076.6401    
   3076.6460    
   3015.1284    
   3087.8700    
   3146.8173    
   3101.9140    
   3068.2973    
   3059.9062    
   3104.7424    
   3296.3820    
   3273.7543    
   3441.3350    
   3447.0540    
   3541.4240    
   3838.8403    
   4102.3620    
   4205.7880    
   4552.3970    
   4804.1152    
   5248.4340    
   5553.3520    
   5872.6103    
   6161.0680    
   6433.8550    
   6626.7030    
   6656.8010    
   6596.6830    
   6354.6450    
   6259.2973    
   5933.9213    
   5699.6720    
   5389.4230    
   5242.3183    
   4985.1191    
   4795.1220    
   4807.3360    
   4618.9960    
   4622.0283    
   4324.8471    
   4390.5190    
   4336.7880    
   4435.4380    
   4498.4680    
   4435.4550    
   4564.7221    
   4486.4794    
   4591.8974    
   4700.9080    
   4603.9960    
   4752.6010    
   4776.9780    
   4661.5190    
   4783.0970    
   4700.9650    
   4582.9170    
   4492.5844    
   4185.4560    
   4005.7492    
   3862.5532    
   3648.2010    
   3419.0063    
   3282.7351    
   3049.2470    
   2979.4521    
   2810.1542    
   2645.0070    
   2562.9400    
   2535.6660    
   2391.6860    
   2375.4610    
   2240.6762    
   2200.4220    
   2195.0680    
   2088.1280    
   2045.5153    
   1979.1103    
   1783.8050    
   1749.6960    
   1760.1943    
   1564.3931    
   1668.5991    
   1450.4140    
   1458.1783    
   1546.2550    
   1422.0510    
   1437.5452    
   1422.0690    
   1463.3970    
   1515.1771    
   1447.9113    
   1375.7200    
   1419.5402    
   1344.8804    
   1344.8910    
   1244.9201    
   1285.8850    
   1280.7710    
   1227.0533    
   1188.7744    
   1188.7832    
   1255.2070    
   1265.4520    
   1181.1630    
   1311.6040    
   1401.6130    
   1381.0150    
   1388.7484    
   1411.9531    
   1388.7663    
   1440.3560    
   1396.5133    
   1486.9063    
   1621.9514    
   1593.3190    
   1705.5210    
   1786.8010    
   1781.5580    
   1958.3010    
   2184.7810    
   2359.7080    
   2577.1070    
   2716.9370    
   2904.8970    
   3207.0703    
   3522.4320    
   3758.6152    
   4024.0040    
   4109.3261    
   4400.3360    
   4604.7630    
   4508.3173    
   4701.7010    
   4656.2190    
   4532.4140    
   4445.3030    
   4313.8450    
   4103.5130    
   4012.3650    
   3816.7590    
   3764.5380    
   3793.5480    
   3672.0341    
   3712.4690    
   3732.7240    
   3686.4882    
   3889.5980    
   4041.8130    
   4198.1510    
   4433.4501    
   4635.1831    
   4949.3041    
   5240.3222    
   5532.4380    
   5915.7280    
   6061.3691    
   6188.4550    
   6382.2412    
   6339.3940    
   6306.5000    
   6234.3070    
   5944.8410    
   5710.4850    
   5409.5200    
   5066.5600    
   4814.6484    
   4562.8370    
   4201.2773    
   4068.4590    
