  11100 13  1 ##LUAG6.SP PUC001 BMW  .000 # SI 060593 00.00 01         
  PROGRAM PE-FILECONVERT MAC VERSION 1.0                               
  USER BMW DATE & TIME  1993 03 12 23.41 19.00    9.9300    295K U     
 AU1 TM  50     0     0 LUAG            1.500000 - 2.200000 .00020     
 FILE NAME ON IBM-PC  = LUAG6.SP          ON MAC= P12023.01            
 NO_POINTS  =  3501.    pts   DATA_INTV =  .00020 _m                   
 MIN_LAMBDA =  1.500000 _m     MIN_DATA =    .39750                    
 MAX_LAMBDA =  2.200000 _m     MAX_DATA =    .85740                    
 SCANSPEED  = 15.000000 nm/min SLITWIDTH=   .20000 nmITA =   0.        
       RESP =    .500  sec        ISMS =   0.       DATE=93/05/06      
       INST = 509.                    ? =   0.                         
 ITHACA CORP. SAMPLE                                                   
 3:41:19  12-03-1993                                                   
  This spectra is part of Database LASERS
 Database LASERS was created by Pat Cross working 
 at NASA Langley Research Center, Internal Operations Group,
 Aerospace Electronics Systems Division, Remote Sensing 
 Technology Branch. phone:(757)864-1633   fax:(757)864-7894 
     e-mail p.l.cross@larc.nasa.gov 
     homepage http://aesd.larc.nasa.gov/laser/dbmain.htm
  EOH.(1X,F11.4)                                                       
  3501.         
    252.0165    
    252.1222    
    332.4864    
    237.7758    
    250.0120    
    237.9859    
    204.1649    
    209.1122    
    209.2177    
    180.2835    
    151.3871    
     69.5507    
    120.2265    
    173.4505    
    130.0848    
    168.8279    
    152.0209    
    101.4750    
    186.0694    
    217.6464    
    229.8717    
    263.9440    
    244.6330    
    264.1544    
    254.5500    
    269.2247    
    305.7976    
    242.7338    
    170.1984    
    286.6584    
    277.0396    
    197.1202    
    267.5349    
    301.6697    
    175.6653    
    168.5204    
    226.7112    
    243.7909    
    197.8597    
     94.1634    
    176.2987    
    198.1749    
    162.0098    
    171.7856    
    186.3893    
    133.3583    
    235.0367    
    189.1327    
    196.4910    
    189.3435    
    245.1592    
    160.5467    
    228.3964    
    165.5898    
    257.7112    
    187.5537    
    209.4409    
    299.3375    
    219.3382    
    238.8326    
    175.9911    
    127.8085    
    152.0415    
    185.9785    
    149.8401    
    191.0244    
    229.8766    
    147.7382    
    283.4792    
    300.5974    
    254.5512    
    286.2200    
    252.3313    
    259.7189    
    276.8205    
    293.9367    
    345.1651    
    391.6371    
    260.2466    
    311.3893    
    382.1797    
    345.6964    
    270.3745    
    292.3544    
    260.8730    
    287.7032    
    278.0851    
    234.5120    
    263.7250    
    263.8308    
    237.2510    
    278.6085    
    198.7120    
    189.1375    
    244.9514    
    228.0795    
    332.6573    
    288.9636    
    340.1720    
    286.7436    
    279.5616    
    262.6681    
    340.5896    
    279.8806    
    279.9792    
    248.5340    
    255.9117    
    377.7034    
    260.9775    
    207.7622    
    222.3968    
    171.6948    
    244.4216    
    254.2217    
    225.2446    
    261.7145    
    218.1828    
    242.5199    
    296.0369    
    286.4209    
    325.4382    
    315.8131    
    296.4548    
    303.8634    
    418.5882    
    330.8389    
    277.4413    
    311.5722    
    311.6844    
    333.6898    
    258.4457    
    307.1311    
    421.8759    
    287.8968    
    297.7218    
    273.5334    
    205.7621    
    278.6024    
    220.4985    
    145.6715    
    230.3987    
    225.6598    
    233.0351    
    204.0776    
    252.6425    
    240.6173    
    345.2274    
    265.0837    
    255.4813    
    262.8724    
    207.2345    
    343.3199    
    297.1858    
    304.5837    
    311.9855    
    198.0828    
    236.9352    
    322.0321    
    305.1102    
    322.2431    
    317.4826    
    232.6101    
    225.4425    
    300.7790    
    317.9033    
    342.3528    
    271.9380    
    335.2547    
    371.9270    
    318.4278    
    320.9648    
    345.4228    
    304.1486    
    355.3810    
    453.2160    
    399.5118    
    428.9530    
    397.2796    
    263.4951    
    343.8230    
    309.8556    
    409.9146    
    327.0988    
    346.6868    
    378.4826    
    312.8134    
    288.6105    
    366.6045    
    206.3976    
    274.3536    
    337.6766    
    301.2883    
    279.5276    
    364.7989    
    279.7332    
    326.0287    
    389.5097    
    423.8227    
    409.2640    
    304.5581    
    309.5265    
    470.7618    
    404.7903    
    395.1308    
    451.4726    
    348.9953    
    371.0404    
    446.8901    
    437.2129    
    317.7680    
    339.7801    
    347.1900    
    361.9129    
    293.8831    
    332.8916    
    301.3785    
    303.9182    
    274.8696    
    347.9265    
    275.0826    
    362.7526    
    431.2403    
    285.1083    
    304.6495    
    448.6847    
    338.9157    
    356.0786    
    283.2040    
    229.9640    
    285.8462    
    276.2339    
    324.9465    
    286.1616    
    235.3294    
    269.3817    
    325.3662    
    235.6488    
    289.1158    
    286.7874    
    146.5386    
    287.0005    
    272.5380    
    299.3606    
    301.8891    
    265.5763    
    428.8684    
    426.5250    
    368.0313    
    434.0749    
    451.3032    
    373.2208    
    476.0135    
    446.7231    
    459.0785    
    449.3831    
    451.9367    
    420.2442    
    391.0323    
    415.5634    
    371.7313    
    427.9916    
    289.2048    
    408.6514    
    359.9586    
    401.5397    
    323.6497    
    323.7546    
    384.7675    
    445.9585    
    372.7805    
    331.4771    
    351.0524    
    341.4199    
    373.2000    
    375.7402    
    368.5313    
    466.3850    
    412.6665    
    342.0524    
    403.1098    
    322.7896    
    408.2092    
    376.5818    
    330.4056    
    315.9192    
    367.1437    
    320.9904    
    360.0466    
    340.6616    
    311.5795    
    355.4885    
    345.8453    
    389.8279    
    365.5495    
    353.4652    
    426.7788    
    363.4237    
    404.9948    
    427.0940    
    441.8705    
    405.3096    
    483.7123    
    537.8218    
    454.5237    
    398.4073    
    344.8830    
    435.2635    
    420.7088    
    386.6276    
    430.6871    
    340.5432    
    279.8878    
    369.9705    
    309.2400    
    321.4954    
    302.1548    
    282.8400    
    292.6504    
    297.6122    
    305.0090    
    336.7195    
    220.3577    
    268.9157    
    239.9321    
    361.4851    
    312.9243    
    322.7542    
    245.1944    
    342.4248    
    383.9489    
    357.2420    
    403.6818    
    345.2799    
    274.9109    
    384.4751    
    443.2020    
    374.9268    
    460.5388    
    375.1434    
    326.5460    
    355.8563    
    424.2739    
    443.9322    
    397.6163    
    348.9757    
    547.2465    
    451.6924    
    385.8407    
    442.1184    
    466.6909    
    461.9047    
    565.0942    
    496.4102    
    447.5320    
    459.8744    
    357.4240    
    447.8475    
    447.9555    
    360.1761    
    396.8535    
    362.8284    
    280.2737    
    406.9315    
    292.6224    
    365.6803    
    341.4309    
    268.6712    
    341.6470    
    409.9979    
    354.0272    
    417.5403    
    344.4958    
    373.8298    
    479.0093    
    442.3945    
    352.2141    
    405.9588    
    398.7404    
    389.0801    
    545.8921    
    479.7433    
    538.7244    
    477.4997    
    389.6125    
    470.3612    
    423.9894    
    473.0230    
    470.6746    
    470.7766    
    399.9967    
    446.5194    
    446.6188    
    419.8409    
    427.2779    
    398.0791    
    439.6999    
    464.2719    
    403.2740    
    430.2383    
    391.2857    
    335.3719    
    469.6915    
    430.6577    
    442.9897    
    521.4890    
    438.3036    
    561.0128    
    502.1782    
    448.4011    
    463.1810    
    414.4029    
    409.6217    
    497.7896    
    439.1440    
    449.0333    
    485.8520    
    446.7894    
    503.2256    
    464.1269    
    518.1481    
    535.4423    
    530.6360    
    525.8272    
    570.1680    
    521.1279    
    575.3049    
    565.5634    
    563.2114    
    558.3997    
    666.9846    
    597.9826    
    610.4150    
    524.4237    
    482.8355    
    559.0206    
    576.3524    
    596.1512    
    537.2164    
    522.5941    
    439.4238    
    515.4396    
    473.8748    
    589.3896    
    547.6782    
    476.6404    
    555.2539    
    523.4306    
    528.4471    
    570.3248    
    617.2283    
    496.8717    
    624.8375    
    607.6767    
    629.9797    
    677.0224    
    615.3901    
    637.6942    
    669.9146    
    628.0389    
    734.5043    
    625.7737    
    657.9751    
    752.1885    
    631.0251    
    628.6594    
    616.4348    
    599.2910    
    619.1099    
    606.8861    
    582.3694    
    663.8589    
    555.5156    
    597.4533    
    600.0233    
    592.7373    
    654.4949    
    629.9166    
    575.8237    
    568.5441    
    635.1629    
    674.7915    
    724.4092    
    618.2123    
    542.0280    
    714.8079    
    640.7327    
    690.2590    
    685.4120    
    633.6402    
    540.2053    
    656.0662    
    596.9723    
    685.9386    
    740.5426    
    658.9550    
    698.6206    
    711.1078    
    659.2713    
    723.7061    
    780.8897    
    798.3962    
    820.9027    
    845.9294    
    870.9799    
    866.0879    
    841.2526    
    941.3164    
    916.3819    
    869.0018    
    979.2385    
    966.8019    
    896.7945    
    936.9279    
    952.0671    
    907.1120    
    917.2187    
    862.3497    
    894.9231    
    935.0566    
    892.6315    
    885.2403    
    820.5001    
    803.1855    
    965.6519    
    925.6649    
    923.2643    
    858.4094    
    870.9911    
    851.1359    
    951.2314    
    901.2784    
    971.5030    
    959.0698    
    941.6284    
   1047.2067    
   1014.6097    
   1009.6878    
   1082.8053    
   1017.4318    
   1030.1145    
   1103.3114    
   1080.7012    
   1151.5465    
   1090.9968    
   1121.4063    
   1116.4607    
   1121.6169    
   1096.4611    
   1202.8550    
   1139.6306    
   1230.9924    
   1276.8843    
   1215.9586    
   1200.8390    
   1307.7834    
   1282.3940    
   1305.4354    
   1387.3131    
   1236.9083    
   1397.7690    
   1282.9174    
   1257.5616    
   1331.5811    
   1352.1277    
   1362.4540    
   1298.7286    
   1237.7406    
   1344.8740    
   1398.7085    
   1368.0898    
   1432.2417    
   1386.2134    
   1404.2466    
   1548.3667    
   1558.7941    
   1631.3258    
   1696.3254    
   1699.0331    
   1743.3881    
   1850.6151    
   1947.8829    
   2016.5518    
   1995.5389    
   2032.6165    
   2202.6179    
   2272.1543    
   2349.9890    
   2368.9038    
   2395.9028    
   2563.5791    
   2658.8967    
   2675.3728    
   2784.9417    
   2853.7603    
   2986.4626    
   3257.2163    
   3361.5283    
   3597.3716    
   3778.2649    
   3896.9045    
   4245.0557    
   4515.4360    
   4783.4331    
   5178.2607    
   5536.8916    
   5873.2085    
   6460.7319    
   6866.6660    
   7394.4521    
   7826.8838    
   8229.2139    
   8809.2461    
   9239.4502    
   9410.3906    
   9694.6035    
   9795.4893    
   9822.8105    
   9683.3203    
   9491.1299    
   9300.7549    
   9112.1650    
   8563.8740    
   8180.1963    
   7828.3477    
   7399.5688    
   6989.8711    
   6644.7549    
   6246.7358    
   5907.6211    
   5646.7334    
   5242.9678    
   5097.9136    
   4825.9824    
   4614.6826    
   4500.9482    
   4319.6382    
   4266.5215    
   4210.5967    
   4002.7170    
   4040.7419    
   4058.3767    
   4038.0320    
   4052.7339    
   4070.3762    
   4015.0029    
   4173.1938    
   4270.5205    
   4457.5361    
   4610.2354    
   4673.5088    
   4937.4561    
   5229.6689    
   5385.2295    
   5843.0640    
   6226.7544    
   6568.1846    
   7173.0693    
   7754.5078    
   8396.6631    
   8992.6533    
   9541.4873    
  10343.8193    
  11258.6523    
  12099.0654    
  13017.0518    
  13731.7451    
  14204.9873    
  15009.1650    
  15120.2920    
  15110.2822    
  15145.8203    
  14438.9756    
  13803.4482    
  13146.0420    
  12226.9199    
  11180.7861    
  10329.4199    
   9409.4307    
   8738.6660    
   7950.8159    
   7182.3911    
   6723.7314    
   6019.2466    
   5541.9790    
   5189.7842    
   4776.9336    
   4408.0171    
   4034.0715    
   3715.7112    
   3584.1143    
   3436.3708    
   3088.2378    
   2960.6785    
   2724.2517    
   2601.6841    
   2517.7134    
   2345.3474    
   2291.8528    
   2153.2783    
   1941.8696    
   1918.3199    
   1960.4972    
   1777.1674    
   1756.4108    
   1662.9187    
   1660.4338    
   1554.4880    
   1487.6262    
   1469.7366    
   1510.9854    
   1377.6697    
   1352.2202    
   1431.6550    
   1306.5100    
   1332.1122    
   1260.8998    
   1243.2129    
   1273.8212    
   1240.8838    
   1202.9250    
   1192.8956    
   1086.8621    
   1071.8441    
   1193.2026    
   1004.1626    
   1092.3162    
    974.2761    
    996.9536    
    954.4459    
    972.0825    
    949.6418    
   1007.4033    
    934.8391    
    992.5555    
   1063.0250    
    952.6712    
    962.7894    
   1040.6902    
    970.5103    
   1038.3845    
   1091.3555    
   1078.8634    
   1167.3325    
   1053.8922    
   1175.1283    
   1228.4569    
   1198.1301    
   1215.9828    
   1274.5052    
   1233.9559    
   1236.5994    
   1264.6461    
   1216.4993    
   1269.9375    
   1270.0436    
   1178.8053    
   1219.4580    
   1146.1334    
   1174.0569    
   1222.3025    
   1100.9972    
   1219.9720    
   1253.0822    
   1149.2815    
   1283.8077    
   1114.1361    
   1245.8793    
   1347.8337    
   1319.8735    
   1332.7266    
   1399.2644    
   1371.2355    
   1473.8293    
   1538.2533    
   1592.5403    
   1634.0286    
   1600.4973    
   1634.2341    
   1766.8218    
   1842.6481    
   1908.2632    
   1918.8679    
   1897.9740    
   2003.2789    
   2130.3557    
   2133.1116    
   2231.6506    
   2199.7803    
   2210.5371    
   2314.8174    
   2333.6748    
   2232.1738    
   2218.9485    
   2128.6345    
   2081.0354    
   2139.4626    
   1983.5465    
   1975.7479    
   1881.2861    
   1818.5873    
   1836.9857    
   1693.7738    
   1696.4718    
   1660.2513    
   1497.7130    
   1500.3862    
   1474.7917    
   1405.6741    
   1375.0858    
   1377.7429    
   1331.8916    
   1331.9928    
   1360.1676    
   1304.1711    
   1408.9556    
   1355.3749    
   1322.3195    
   1470.8020    
   1460.6357    
   1458.1731    
   1460.8409    
   1478.9165    
   1540.7609    
   1494.5437    
   1540.9733    
   1520.4778    
   1484.5800    
   1507.8204    
   1574.9130    
   1585.3423    
   1502.9807    
   1446.5905    
   1415.9426    
   1508.4427    
   1449.4683    
   1421.3837    
   1477.9127    
   1452.3480    
   1378.2004    
   1493.6373    
   1460.3530    
   1483.5616    
   1496.5143    
   1409.4100    
   1501.8683    
   1543.1544    
   1633.6444    
   1592.3805    
   1517.7192    
   1605.5034    
   1683.2908    
   1818.7594    
   1621.3256    
   1600.7456    
   1816.4629    
   1782.6439    
   1889.9276    
   1900.5240    
   1843.0138    
   1953.2512    
   2140.9060    
   2101.2395    
   2218.2261    
   2255.6597    
   2175.8499    
   2309.3235    
   2371.0740    
   2408.7942    
   2473.5518    
   2619.8782    
   2671.6863    
   2824.9500    
   2849.7795    
   3009.9519    
   3065.5449    
   3124.0811    
   3311.7520    
   3413.3691    
   3498.4558    
   3663.8821    
   3652.5452    
   3897.2744    
   3984.4302    
   4092.4185    
   4248.0723    
   4313.0996    
   4419.8936    
   4614.0771    
   4659.2349    
   4737.6729    
   5038.8740    
   4993.0669    
   5042.1470    
   5282.7266    
   5270.4287    
   5404.2563    
   5457.4751    
   5460.7036    
   5473.3276    
   5611.6631    
   5678.0732    
   5656.0503    
   5533.3140    
   5738.5698    
   5786.3154    
   5741.9521    
   5878.9482    
   5808.8999    
   5764.4868    
   5780.4800    
   5850.6406    
   5927.4424    
   5978.8452    
   5911.6465    
   6027.2607    
   6062.7915    
   5979.2573    
   6202.0923    
   6218.4365    
   6156.9121    
   6228.3911    
   6231.7461    
   6073.2007    
   6070.0781    
   5973.6753    
   5877.7295    
   5906.5986    
   5750.5820    
   5598.9155    
   5435.8818    
   5206.0811    
   5221.6372    
   5006.4907    
   4839.0713    
   4718.2104    
   4556.1509    
   4410.2275    
   4250.6235    
   4118.6025    
   4063.1748    
   3914.9795    
   3741.9995    
   3650.3982    
   3519.3972    
   3474.0991    
   3451.5420    
   3260.0391    
   3212.5220    
   3193.0500    
   3115.0461    
   2998.5508    
   2987.5850    
   2869.0769    
   2921.5044    
   2905.0703    
   2850.1460    
   2866.7405    
   2866.8486    
   2770.9326    
   2853.3093    
   2817.7207    
   2815.0793    
   2815.1816    
   2722.2424    
   2749.6660    
   2845.6853    
   2810.1099    
   2873.3799    
   2785.6504    
   2821.3909    
   2854.4424    
   2887.5520    
   2895.9182    
   2967.7483    
   3048.1545    
   3023.3013    
   3098.3665    
   3098.4714    
   3154.2859    
   3204.6563    
   3221.5469    
   3255.2593    
   3274.9941    
   3233.0540    
   3300.4688    
   3227.6575    
   3233.3625    
   3289.5452    
   3253.1780    
   3222.4768    
   3261.7920    
   3133.3259    
   3150.1526    
   3122.3904    
   3066.8782    
   3119.8127    
   3061.5334    
   3028.3528    
   3042.3215    
   2956.6279    
   2953.9712    
   2896.1692    
   2888.0149    
   2888.1172    
   2849.7312    
   2863.5740    
   2860.9280    
   2756.8589    
   2735.0999    
   2653.4299    
   2626.3491    
   2542.4133    
   2547.9248    
   2426.6255    
   2450.9495    
   2375.7903    
   2343.7222    
   2346.5061    
   2245.0627    
   2173.3237    
   2231.9458    
   2165.5623    
   2107.3406    
   2073.0566    
   1917.8340    
   1936.3020    
   1952.1626    
   1928.6367    
   1978.6575    
   1886.9043    
   1889.6322    
   1944.8047    
