  11100 14  1 04CR373.SP PCR307 EAM  .000 # SI 102488 10.30   1        
  PROGRAM PE-CONVERT VERSION 02.30                                     
  USER EAM DATE & TIME  1988 10 26 11.13 10.17    10.000    295K #     
 AU1 TM 200     0     0 YAG             1.820000 - 2.200000 .00020     
 FILE NAME ON PE-3600 = 004CR373.SP       ON PC = 004CR373.SP          
 NO_POINTS  =  1901.    pts   DATA_INTV =  .000200 æm                  
 MIN_LAMBDA =  1.820000 æm     MIN_DATA =  .000100                     
 MAX_LAMBDA =  2.200000 æm     MAX_DATA =  518.790                     
 SCANSPEED  = .03000000 æm/min SLITWIDTH=   .00015 æmITA =   0.        
       RESP =    .500   sec        ISMS =   0.       DATE=88/10/24     
       INST = 509.                    ? =   0.                         
 TM (2%)  IN YAG HUTCHINSON 3-7  10MM                                  
 SAMPLE ID IS CR307.  THE NIR SENSITIVITY ON THE PE-3600 WAS           
 SET ON 5.                                                             
 TM 2% IN YAG 10MM HUTCHINSON                                          
  This spectra is part of Database LASERS
 Database LASERS was created by Pat Cross working 
 at NASA Langley Research Center, Internal Operations Group,
 Aerospace Electronics Systems Division, Remote Sensing 
 Technology Branch. phone:(757)864-1633   fax:(757)864-7894 
     e-mail p.l.cross@larc.nasa.gov 
     homepage http://aesd.larc.nasa.gov/laser/dbmain.htm
  EOH     (1X,F11.4)                                                   
  1901.         
    347.3899    
    310.8169    
    311.1301    
    309.5912    
    377.9920    
    349.5917    
    336.5409    
    333.1320    
    310.2320    
    341.8354    
    340.5974    
    355.5376    
    329.7440    
    330.9887    
    347.1446    
    349.9501    
    348.3992    
    337.8344    
    331.3228    
    326.3680    
    322.3466    
    320.8038    
    328.2413    
    311.5382    
    320.5084    
    309.0771    
    344.7129    
    334.7778    
    325.4809    
    314.0383    
    323.0129    
    327.0443    
    355.6364    
    352.2146    
    358.1395    
    371.2560    
    391.9349    
    407.6590    
    364.0859    
    358.7863    
    364.0953    
    364.1000    
    376.2932    
    366.6065    
    379.4324    
    364.7426    
    357.5724    
    365.3769    
    381.9568    
    353.5352    
    352.2947    
    339.8579    
    339.2420    
    372.9043    
    386.3727    
    363.5416    
    359.8018    
    346.7249    
    392.6662    
    411.5425    
    382.9530    
    391.4249    
    365.4476    
    371.7003    
    371.3927    
    389.2469    
    389.8795    
    371.4068    
    378.6062    
    379.5503    
    381.4339    
    375.1782    
    332.5074    
    360.8182    
    357.3930    
    346.8098    
    356.4672    
    341.5342    
    363.0254    
    323.2438    
    336.5790    
    326.0405    
    308.7282    
    346.2261    
    376.8041    
    345.6130    
    366.1854    
    356.5191    
    339.4118    
    345.6319    
    356.8450    
    365.2721    
    369.3367    
    374.9695    
    323.9340    
    319.2963    
    341.6239    
    329.5245    
    336.0434    
    309.7344    
    314.9909    
    332.6443    
    306.9708    
    328.0033    
    299.8878    
    278.0618    
    280.5216    
    288.5134    
    312.2477    
    284.2205    
    329.2762    
    316.5884    
    306.7094    
    320.3092    
    308.2618    
    282.7129    
    285.4827    
    279.6526    
    296.8733    
    297.4940    
    280.2808    
    271.6987    
    281.8250    
    275.6930    
    272.0193    
    274.4761    
    260.0922    
    269.5826    
    251.8547    
    268.0607    
    258.8882    
    247.5980    
    261.6495    
    257.3750    
    257.3797    
    266.2523    
    252.8080    
    256.7828    
    268.7158    
    245.8066    
    246.7257    
    236.6797    
    258.0284    
    282.2314    
    267.2134    
    249.7992    
    278.2556    
    250.1138    
    251.3388    
    257.7559    
    244.9441    
    257.1542    
    253.7996    
    257.1637    
    239.7849    
    256.2569    
    244.6677    
    250.1611    
    250.4706    
    243.7676    
    233.4236    
    238.9046    
    245.9154    
    246.5300    
    222.2052    
    219.1769    
    234.6686    
    236.1941    
    242.5917    
    221.6220    
    233.4709    
    237.7344    
    249.6219    
    247.1868    
    241.7066    
    237.1446    
    224.0826    
    237.4588    
    237.7675    
    232.9054    
    235.9515    
    222.2857    
    221.6836    
    215.3223    
    240.2312    
    232.9338    
    239.3275    
    240.5499    
    221.4087    
    214.4414    
    227.7920    
    242.7007    
    210.5199    
    191.4931    
    229.0262    
    217.1971    
    216.8988    
    193.3211    
    222.6694    
    246.0908    
    214.7969    
    240.0076    
    247.9342    
    206.3365    
    213.9074    
    226.3449    
    230.6021    
    226.3544    
    232.4352    
    224.5422    
    223.3332    
    232.1454    
    216.0655    
    228.2049    
    230.3362    
    222.1432    
    230.9535    
    218.5138    
    216.3974    
    217.9169    
    198.8629    
    207.9345    
    222.4802    
    218.2394    
    224.6134    
    228.2618    
    225.5337    
    224.6277    
    221.2951    
    224.3340    
    261.1965    
    248.6819    
    269.1613    
    248.6914    
    268.5583    
    233.7793    
    260.6134    
    242.6147    
    257.5667    
    248.1099    
    271.3433    
    255.1375    
    279.6311    
    290.3879    
    254.8467    
    270.7547    
    272.2911    
    245.0993    
    269.2373    
    271.0797    
    278.4420    
    291.6560    
    311.3858    
    312.3169    
    282.4508    
    306.1529    
    353.8927    
    388.2741    
    384.5176    
    380.7635    
    416.2769    
    338.3683    
    385.7897    
    383.6012    
    367.6526    
    367.3454    
    370.1612    
    415.0491    
    424.5212    
    396.1775    
    403.7262    
    380.1943    
    362.6970    
    369.8824    
    376.4523    
    393.6939    
    356.4793    
    379.5963    
    371.1559    
    402.8257    
    410.3836    
    375.8606    
    384.0046    
    404.1027    
    387.7753    
    409.1482    
    454.0700    
    427.4554    
    445.1906    
    446.7814    
    448.0553    
    433.4830    
    449.9693    
    422.1138    
    432.8644    
    430.6549    
    452.5289    
    459.8452    
    436.9986    
    444.9258    
    449.3727    
    464.0009    
    475.1614    
    470.0634    
    454.4731    
    473.2616    
    507.8332    
    512.6575    
    513.9482    
    512.0240    
    467.8659    
    501.4374    
    518.7935    
    503.3718    
    508.8347    
    481.6089    
    480.9747    
    473.3188    
    469.4973    
    436.7816    
    440.2708    
    439.0084    
    432.0490    
    449.4824    
    421.6301    
    387.3443    
    363.8901    
    354.2308    
    379.2131    
    363.5919    
    325.3636    
    347.4027    
    329.0903    
    322.9013    
    329.7198    
    318.8893    
    316.1112    
    306.2353    
    302.5396    
    286.8486    
    294.2336    
    275.8084    
    249.8205    
    257.1506    
    252.8808    
    262.9670    
    238.5666    
    216.1024    
    216.7128    
    213.0831    
    197.6706    
    230.9884    
    193.1542    
    204.6318    
    216.1358    
    205.2460    
    197.0955    
    187.7529    
    178.1271    
    159.2265    
    170.3257    
    209.8112    
    182.6586    
    182.3620    
    172.7470    
    168.8486    
    196.2378    
    175.1646    
    172.4654    
    181.4879    
    187.2125    
    198.9783    
    197.4734    
    186.9260    
    148.8254    
    159.6021    
    144.3538    
    166.8061    
    177.3207    
    171.6173    
    156.9312    
    159.9301    
    171.0314    
    176.7433    
    152.1620    
    173.7486    
    144.6999    
    154.8690    
    159.0652    
    156.6744    
    163.5698    
    150.1023    
    142.9371    
    145.0318    
    172.2897    
    170.7930    
    116.7531    
    142.6621    
    136.7000    
    151.3368    
    172.9192    
    139.1003    
    132.5466    
    117.0833    
    132.2585    
    136.4357    
    117.9889    
    120.0735    
    112.3578    
    134.3679    
    138.2488    
    141.2372    
    128.1279    
    116.8345    
     99.6439    
    137.3779    
    129.3377    
    157.4073    
    123.6935    
    112.7073    
    149.3441    
    144.2701    
    141.5880    
    130.5625    
    111.2475    
    113.9230    
    139.8168    
    164.9457    
    141.9153    
    151.4805    
    137.7480    
    144.6171    
    138.3542    
    106.8432    
    121.9862    
    109.5207    
    136.8821    
    166.1930    
    140.1728    
    125.2816    
    100.6563    
    124.3987    
    124.4034    
    154.2395    
    135.7281    
    106.3080    
    134.8436    
    117.8884    
    139.3256    
    147.3916    
    111.6693    
    116.1257    
    115.5366    
    133.6850    
    149.2086    
    140.8512    
    136.0838    
    113.4831    
    122.6961    
    134.6076    
    148.6395    
    164.5090    
    117.0695    
    123.6122    
    136.4200    
    127.4891    
    129.5775    
     95.1649    
    113.5359    
    138.5318    
    146.2971    
    153.4765    
    120.3853    
    101.9991    
    114.4549    
    140.9473    
    161.8838    
    123.0847    
    139.7680    
    118.3391    
    143.9559    
    163.7060    
    146.3548    
    157.4250    
    142.7812    
    151.7493    
    175.7350    
    155.0497    
    157.7481    
    131.1768    
    138.0361    
    141.0242    
    145.2083    
    147.6029    
     98.2525    
    133.2908    
    125.8525    
    125.8573    
    144.9388    
    133.3100    
    124.3849    
    108.3553    
    121.4212    
    141.3800    
    139.8930    
    143.7775    
    138.4117    
    158.7375    
    165.3347    
    153.0609    
    144.6975    
    134.5598    
    136.6508    
    130.9947    
    150.9919    
    147.7088    
    121.4886    
    120.0072    
    130.1257    
    123.8815    
    146.2388    
    122.1073    
    102.8267    
    114.3938    
    126.5824    
    120.0458    
    117.0803    
    128.6803    
    110.2643    
    137.3290    
    163.0424    
    148.0843    
    151.0786    
    145.1073    
    132.8829    
    170.2651    
    172.6716    
    161.8779    
    136.1800    
    158.2927    
    171.7900    
    154.1122    
    169.6981    
    137.6951    
    136.8049    
    135.0213    
    153.5386    
    146.0706    
    128.1861    
    121.3503    
    113.9306    
    120.7655    
    159.2538    
    139.8307    
    130.0011    
    116.0321    
    152.6894    
    152.0960    
    162.5779    
    162.2834    
    138.0750    
    152.4140    
    155.7098    
    151.8255    
    153.0268    
    148.5471    
    139.8934    
    157.5297    
    160.5293    
    156.9410    
    157.5442    
    144.3943    
    130.9810    
    157.5587    
    164.1539    
    131.5911    
    121.7779    
    112.5770    
    127.7356    
    173.1790    
    148.0222    
    168.9863    
    144.4474    
    137.2917    
    192.4594    
    176.2121    
    174.1136    
    145.6662    
    160.6258    
    168.4248    
    164.8309    
    196.4140    
    151.0688    
    184.6712    
    167.5488    
    177.1621    
    178.0684    
    167.8637    
    152.5927    
    149.3091    
    175.0826    
    163.3850    
    134.4027    
    147.5357    
    131.1356    
    152.0284    
    162.8097    
    161.9159    
    163.7187    
    146.0709    
    159.5340    
    159.5388    
    169.7364    
    193.2027    
    155.3625    
    159.5582    
    164.0575    
    151.4890    
    175.7706    
    155.9852    
    153.2974    
    166.1800    
    153.3071    
    180.9051    
    144.0536    
    157.2117    
    150.6356    
    140.4866    
    167.1133    
    145.5710    
    153.6450    
    141.9978    
    139.3178    
    175.5431    
    155.1600    
    168.3476    
    148.5915    
    159.9646    
    160.8677    
    176.1724    
    178.8823    
    133.3999    
    169.8816    
    156.1015    
    166.5916    
    186.4276    
    153.4233    
    139.9872    
    134.0294    
    144.7715    
    172.3217    
    162.7283    
    154.0511    
    131.6710    
    145.9904    
    154.6633    
    157.9603    
    163.3568    
    132.8864    
    154.6827    
    149.9038    
    151.1038    
    162.4823    
    127.2542    
    134.7030    
    152.9172    
    166.0981    
    159.2114    
    140.3870    
    149.0504    
    153.8389    
    153.5445    
    146.6752    
    148.1732    
    148.7758    
    129.3959    
    138.0398    
    155.3685    
    146.1069    
    152.9851    
    144.6233    
    132.1044    
    151.8041    
    155.9965    
    157.4977    
    135.4010    
    147.9379    
    142.2693    
    150.3383    
    165.3105    
    139.3012    
    152.7446    
    128.5854    
    145.2837    
    162.0379    
    133.9595    
    156.9573    
    130.0978    
    141.7259    
    170.1582    
    142.0344    
    157.5803    
    146.5218    
    147.7220    
    156.6965    
    160.8936    
    168.9918    
    136.4018    
    164.8031    
    141.1829    
    159.7194    
    151.3466    
    140.6007    
    142.6945    
    145.0871    
    152.5619    
    143.6046    
    136.7485    
    134.9653    
    135.2685    
    141.2364    
    149.9008    
    141.8426    
    123.9767    
    119.5237    
    144.2448    
    140.3708    
    131.7323    
    161.3047    
    147.8485    
    140.0916    
    144.2740    
    140.1013    
    155.0423    
    132.3620    
    135.0480    
    133.8613    
    142.2144    
    153.5714    
    121.6765    
    125.8436    
    114.5590    
    130.9122    
    138.3656    
    105.0867    
    120.8145    
    113.6934    
     89.4280    
    122.3149    
     97.1204    
    121.1357    
     76.1781    
    116.9872    
    124.1228    
    116.7004    
    123.5378    
     93.3113    
    130.0921    
    124.1471    
    126.8287    
    141.7296    
    119.4068    
    118.8176    
    132.2058    
    128.3405    
    120.6148    
    120.6197    
     97.5035    
     98.3962    
    108.7640    
    110.2513    
     97.8192    
    101.9663    
     74.2245    
     88.3785    
     94.5863    
     96.9563    
     99.3273    
     94.0097    
    106.4421    
    115.9365    
    102.6023    
    119.2126    
    101.7239    
    119.2223    
    118.0391    
    112.9983    
    110.0378    
     91.3998    
     99.0900    
     98.2074    
    109.1682    
     98.8088    
     92.3102    
     92.9061    
     78.7489    
     87.8958    
     90.8530    
     69.0510    
     78.7684    
     74.9451    
     67.5954    
     74.9549    
     87.0445    
     88.5250    
     80.8609    
     96.5113    
     79.1025    
     93.2700    
     97.4132    
     87.0787    
    112.2307    
    101.2736    
    103.3505    
    111.0593    
    112.2503    
    107.2155    
     96.5651    
    103.3750    
    105.1565    
     93.0331    
    102.5014    
     83.0072    
     99.5521    
     89.8039    
     74.7726    
    100.1582    
     83.9169    
     87.7567    
     87.7616    
     84.2262    
    106.4003    
     92.2057    
     96.9391    
     89.5572    
     75.7049    
    109.9808    
     93.1163    
     93.7119    
    107.6244    
     96.9733    
    111.4877    
     96.9831    
    105.8665    
     98.7676    
     93.1555    
     88.1404    
     75.7636    
     86.3792    
     71.3589    
     84.9141    
     83.7391    
     72.8449    
     75.4985    
     68.7368    
     87.8889    
     81.9945    
     59.0583    
     72.2857    
     77.5896    
    105.9497    
     95.0069    
     99.4472    
    108.3347    
    103.8963    
    105.3818    
     90.8953    
     94.1499    
     93.5637    
     96.5244    
    118.1580    
    100.0831    
    104.2317    
     83.2570    
     86.5067    
     93.3025    
     76.7893    
     91.8354    
     91.5449    
     79.1601    
     97.1694    
     87.1313    
     97.1792    
     92.7508    
     88.3267    
    100.1518    
     83.9107    
    104.3053    
     92.7754    
     93.0757    
    108.1708    
     97.5191    
    109.3659    
     96.0508    
    101.9714    
     93.6962    
     83.0754    
     96.3657    
     78.9591    
    105.8449    
     93.7208    
     73.0853    
     75.1501    
     68.9772    
     91.0818    
     87.8394    
     66.6404    
     85.7835    
     73.4137    
    102.6371    
     85.7982    
     86.6884    
     99.9885    
     85.5183    
    109.1779    
    112.4440    
    112.4489    
     92.0319    
     92.3318    
    106.8320    
    109.5035    
    119.5962    
    123.1666    
     96.1982    
    113.9716    
    113.9765    
    121.4034    
    109.2419    
     94.4495    
    119.3388    
    109.2566    
    116.0827    
    102.1582    
    122.9235    
    131.5545    
    119.6650    
    131.2666    
    137.5269    
    134.8502    
    141.4133    
    124.4440    
    150.0808    
    143.5162    
    128.9204    
    134.5815    
    123.2798    
    137.2734    
    125.9653    
    145.3365    
    139.6732    
    121.8187    
    124.4982    
    127.1795    
    145.3612    
    127.7843    
    140.0006    
    159.1271    
    127.7991    
    142.7001    
    140.0203    
    122.7592    
    131.9852    
    120.3922    
    147.5009    
    126.3462    
    134.9832    
    129.9262    
    103.8105    
    154.6984    
    131.7269    
    133.5183    
    131.4390    
    115.3946    
    138.5987    
    118.6695    
    147.8584    
    139.2098    
    128.7900    
    155.6452    
    127.9076    
    155.3555    
    142.8135    
    136.2587    
    137.1574    
    140.1436    
    148.8040    
    137.7684    
    137.1771    
    127.0595    
    111.0294    
    159.2948    
    134.8132    
    127.3767    
    119.3573    
    112.8332    
    127.3915    
    120.8570    
    113.4410    
    109.2951    
    100.1213    
    115.5328    
    103.3861    
    118.8077    
    116.7346    
     88.0321    
    107.2559    
    113.4854    
    134.5947    
    109.0484    
     98.6916    
     98.1053    
    102.2518    
    141.1768    
    114.1134    
    110.5599    
    101.6796    
    110.5698    
     96.3661    
    105.5430    
     90.4673    
     88.9967    
     67.2073    
     82.5173    
     74.5693    
