  11100 11  1   BR90     POSU   BMW  .000 U S1 022192 00.01   1        
  PROGRAM LAMBDA-9   VERSION 02.31                                     
  USER BMW DATE & TIME  1992 02 24 09.54 23.56    4.3900    295K P     
 AU1 TM 300     0     0 YLF              .320000 -  .740000 .00020     
 FILE NAME                                ON PC = BR90.DX              
 NO_POINTS  =  2101.    pts   DATA_INTV =  .000200 ˆm                  
 MIN_LAMBDA =   .320000 ˆm     MIN_DATA =    .00570                    
 MAX_LAMBDA =   .740000 ˆm     MAX_DATA =    .94590                    
 SCANSPEED  = 15.000000 NM/MIN SLITWIDTH=   .40000 NM                  
  RESP TIME =  1.0      sec SENSITIVITY = 2          DATE=92/02/21     
 VERTICAL POL. (E PARALLEL TO C-AXIS)                                  
  This spectra is part of Database LASERS
 Database LASERS was created by Pat Cross working 
 at NASA Langley Research Center, Internal Operations Group,
 Aerospace Electronics Systems Division, Remote Sensing 
 Technology Branch. phone:(757)864-1633   fax:(757)864-7894 
     e-mail p.l.cross@larc.nasa.gov 
     homepage http://aesd.larc.nasa.gov/laser/dbmain.htm
  EOH     (1X,F11.4)                                                   
  2101.         
    288.4981    
    281.8889    
    276.1199    
    274.5243    
    252.9414    
    283.8511    
    306.5061    
    304.0663    
    299.9530    
    282.4711    
    277.5349    
    275.1041    
    281.8519    
    263.5788    
    292.8557    
    292.0914    
    277.9642    
    270.5297    
    275.6035    
    272.3384    
    281.5859    
    287.5020    
    288.4079    
    266.7859    
    270.1892    
    289.4536    
    282.0065    
    280.4070    
    295.5138    
    275.5401    
    275.6092    
    277.3463    
    259.0845    
    254.1618    
    280.0555    
    285.1323    
    288.5416    
    251.1095    
    291.1849    
    294.5958    
    286.3077    
    254.7067    
    246.4623    
    274.8274    
    299.9515    
    254.9758    
    277.5305    
    273.4281    
    248.5258    
    259.4019    
    279.4656    
    279.5319    
    267.0936    
    248.8571    
    261.3972    
    266.4582    
    256.5366    
    264.9240    
    272.4867    
    273.3855    
    267.6178    
    283.5251    
    275.2474    
    266.1463    
    255.3930    
    269.6071    
    253.0275    
    254.7542    
    242.3568    
    265.6993    
    269.9272    
    278.3270    
    277.5564    
    265.9537    
    267.6822    
    273.5775    
    261.9807    
    263.7085    
    264.6034    
    262.1691    
    246.4360    
    259.7979    
    277.3507    
    296.6158    
    262.4804    
    254.2250    
    255.1183    
    276.8263    
    253.5786    
    270.2825    
    223.0089    
    237.9859    
    291.3203    
    283.0323    
    267.2564    
    263.9872    
    268.2101    
    262.4435    
    241.7296    
    263.3964    
    255.9706    
    284.3501    
    274.4030    
    281.1324    
    253.7157    
    257.9322    
    248.8498    
    259.7144    
    261.4371    
    259.8327    
    267.3808    
    250.8068    
    276.6622    
    267.5570    
    263.4536    
    271.0049    
    270.2302    
    271.9545    
    277.0122    
    270.4044    
    251.3312    
    267.1892    
    263.9176    
    262.3112    
    270.6924    
    279.9165    
    256.6618    
    260.8767    
    262.5971    
    252.6772    
    254.3960    
    251.1292    
    270.3146    
    254.5656    
    278.7597    
    288.8262    
    281.3734    
    308.9994    
    330.0085    
    294.8954    
    301.6374    
    313.4080    
    321.0043    
    324.4135    
    326.1460    
    335.4338    
    352.3041    
    359.0958    
    348.2068    
    364.2620    
    394.7259    
    413.4236    
    438.1238    
    461.1966    
    508.3563    
    542.8538    
    565.3801    
    624.5239    
    683.2523    
    722.0860    
    762.8956    
    807.4992    
    838.8934    
    836.2554    
    865.0666    
    822.9186    
    822.0762    
    820.3389    
    819.4966    
    832.0893    
    855.4858    
    878.0522    
    904.3046    
    959.7641    
   1053.3770    
   1113.6583    
   1232.7860    
   1357.6520    
   1512.9858    
   1737.9291    
   2099.9663    
   2755.6899    
   4074.1128    
   5258.1533    
   4896.0791    
   3560.3916    
   2966.7144    
   3010.8247    
   3233.8594    
   3187.3191    
   2946.7600    
   2741.2026    
   2648.4661    
   2599.7158    
   2648.5669    
   2799.2517    
   3012.4739    
   3275.0068    
   3436.2573    
   3550.8347    
   3854.3313    
   4376.3389    
   4817.7959    
   5076.7231    
   5152.3882    
   5144.5259    
   5302.7852    
   5480.9253    
   5431.5405    
   4897.3306    
   4005.7732    
   3145.7529    
   2447.2346    
   1918.4689    
   1547.2162    
   1236.6328    
   1028.7681    
    867.7509    
    769.3959    
    660.0253    
    594.6498    
    574.7467    
    527.2974    
    498.9894    
    465.6612    
    444.3904    
    419.7843    
    397.7959    
    387.6942    
    349.8040    
    346.4880    
    312.9858    
    313.8699    
    311.4059    
    296.4071    
    267.2837    
    258.1857    
    264.0503    
    233.3948    
    227.6467    
    241.7732    
    234.3617    
    236.0647    
    206.3472    
    246.9334    
    227.0960    
    230.4522    
    228.8424    
    227.2333    
    235.5573    
    224.0155    
    253.8928    
    202.6337    
    220.8442    
    214.2788    
    220.9346    
    225.9412    
    211.9366    
    221.0695    
    224.4218    
    184.8721    
    217.0713    
    217.9423    
    213.0307    
    200.6985    
    205.6909    
    227.2149    
    200.0069    
    228.9583    
    219.0788    
    191.9002    
    210.0816    
    211.7763    
    192.8553    
    206.9119    
    230.9200    
    200.4013    
    212.8201    
    263.3981    
    224.4751    
    222.0380    
    222.0811    
    221.2974    
    185.0579    
    205.6948    
    203.2635    
    188.4778    
    149.9375    
    203.3916    
    196.0161    
    227.4277    
    218.3761    
    235.7895    
    220.9402    
    240.8441    
    260.8000    
    253.3685    
    209.5465    
    212.8897    
    222.0185    
    217.9288    
    218.7963    
    217.1859    
    223.8388    
    227.1881    
    211.5303    
    184.3815    
    202.5387    
    209.1783    
    202.6210    
    212.5619    
    215.9057    
    193.6807    
    213.5099    
    198.7045    
    208.6396    
    220.2398    
    221.1069    
    211.2369    
    202.2041    
    207.1925    
    208.8825    
    205.6232    
    204.0144    
    202.4053    
    213.9949    
    224.7755    
    203.3498    
    190.2105    
    218.2837    
    196.0531    
    195.2691    
    203.5484    
    206.8864    
    211.0511    
    211.0905    
    225.9986    
    206.2189    
    206.2581    
    215.3744    
    209.6359    
    205.5510    
    198.1718    
    198.2106    
    217.2209    
    199.9358    
    200.7986    
    218.1624    
    210.7713    
    196.7953    
    198.4809    
    205.9374    
    210.0996    
    192.0081    
    204.4028    
    211.0393    
    198.7101    
    186.4010    
    197.1388    
    208.7161    
    207.1041    
    179.9753    
    204.7059    
    208.0420    
    194.0712    
    217.1951    
    190.0306    
    197.4773    
    195.0437    
    199.1990    
    176.2047    
    206.6915    
    214.1534    
    205.1162    
    191.9739    
    202.7172    
    189.5786    
    192.0844    
    204.4758    
    198.7442    
    207.0228    
    196.3467    
    196.3831    
    193.1264    
    190.6940    
    202.2585    
    198.9991    
    199.8592    
    190.8388    
    202.4031    
    194.2029    
    198.3561    
    190.9827    
    200.0750    
    178.7218    
    205.9153    
    193.5944    
    191.1612    
    192.0198    
    194.5243    
    209.3915    
    183.9015    
    180.6494    
    188.0830    
    193.8776    
    198.8533    
    197.2410    
    203.0423    
    191.5491    
    201.4645    
    191.6189    
    180.9647    
    204.8653    
    199.9557    
    199.9904    
    200.0250    
    198.4125    
    191.8614    
    186.1383    
    187.8170    
    196.0800    
    196.9372    
    178.8795    
    193.7133    
    186.3437    
    183.0896    
    193.8154    
    182.3356    
    188.1240    
    189.8030    
    175.8663    
    181.6495    
    185.7924    
    180.8951    
    180.1070    
    190.0049    
    186.7488    
    185.9600    
    187.6380    
    185.2049    
    195.9318    
    201.7294    
    181.1954    
    182.8716    
    201.0049    
    184.5816    
    206.0151    
    176.4327    
    197.0194    
    196.2289    
    192.1466    
    192.1793    
    190.5669    
    171.7040    
    179.9465    
    178.3361    
    192.3421    
    201.4300    
    185.8282    
    172.7193    
    179.3193    
    178.5301    
    175.2780    
    181.8800    
    189.3096    
    196.7468    
    195.9555    
    185.2949    
    173.8285    
    186.1807    
    184.5683    
    194.4687    
    182.9884    
    179.7340    
    201.1498    
    179.7971    
    179.0072    
    174.1130    
    168.4017    
    193.8977    
    190.6383    
    185.7365    
    184.9456    
    155.4479    
    172.6901    
    179.2882    
    190.0024    
    191.6786    
    185.9538    
    166.2840    
    186.8375    
    181.1163    
    170.4761    
    186.9297    
    184.4942    
    173.0290    
    183.7340    
    181.2999    
    173.9411    
    167.4094    
    167.4398    
    185.5292    
    186.3815    
    185.5897    
    180.6905    
    165.1316    
    175.8241    
    179.9593    
    158.6674    
    180.8407    
    177.5860    
    180.0790    
    175.1832    
    180.9599    
    159.6655    
    161.3331    
    162.1821    
    191.7629    
    176.1815    
    172.1085    
    166.3978    
    159.8722    
    152.5343    
    162.3882    
    168.9746    
    167.3643    
    178.8793    
    175.6250    
    161.7148    
    166.6609    
    158.4973    
    161.8018    
    169.2073    
    184.8319    
    188.1482    
    188.1770    
    179.1689    
    170.1714    
    162.8228    
    175.9714    
    164.5191    
    172.7464    
    189.1992    
    162.9656    
    167.9116    
    174.5008    
    167.9683    
    157.3463    
    162.2879    
    165.5937    
    181.2092    
    173.8501    
    153.3953    
    156.6965    
    153.4514    
    154.2973    
    173.1697    
    158.4459    
    166.6655    
    154.4088    
    154.4365    
    167.5686    
    161.0413    
    154.5196    
    167.6515    
    170.9587    
    181.6544    
    179.2188    
    162.8446    
    154.6846    
    162.8993    
    171.1233    
    150.6765    
    163.8006    
    167.1056    
    153.2121    
    141.7941    
    163.0898    
    162.2981    
    158.2305    
    171.3675    
    164.0172    
    164.8635    
    166.5291    
    182.1432    
    160.8481    
    159.2374    
    160.0830    
    174.0425    
    158.4986    
    155.2512    
    168.3821    
    164.3110    
    155.3308    
    155.3572    
    161.9330    
    153.7738    
    160.3480    
    166.1083    
    168.5932    
    170.2588    
    159.6341    
    153.9312    
    161.3238    
    150.7115    
    140.9305    
    161.4019    
    165.5237    
    154.0873    
    171.3132    
    151.6851    
    168.0856    
    155.0089    
    144.4050    
    148.5174    
    152.6314    
    172.3135    
    178.0818    
    163.3493    
    170.7500    
    166.6774    
    150.3313    
    138.1012    
    152.0179    
    160.2261    
    143.8940    
    170.1082    
    159.4831    
    158.6896    
    153.8051    
    152.1946    
    140.7783    
    138.3535    
    151.4518    
    160.4776    
    163.7783    
    146.6218    
    146.6467    
    145.0370    
    158.1463    
    145.9038    
    145.1113    
    154.9473    
    169.7126    
    170.5571    
    148.4790    
    152.5920    
    156.7066    
    155.9132    
    160.8484    
    154.3256    
    163.3538    
    165.0162    
    168.3180    
    160.9703    
    138.9204    
    166.7522    
    165.9569    
    141.4429    
    152.0905    
    150.4795    
    165.2341    
    179.1974    
    168.5596    
    169.4033    
    162.0545    
    163.7160    
    155.5543    
    165.4017    
    179.3648    
    178.5678    
    179.4123    
    175.3335    
    178.6389    
    180.3037    
    177.0454    
    170.5083    
    182.0165    
    188.6106    
    212.4999    
    217.4704    
    213.3708    
    210.0975    
    215.0667    
    220.8638    
    228.3169    
    232.4712    
    241.5904    
    252.3772    
    254.0580    
    258.2257    
    269.8665    
    265.7386    
    269.9126    
    275.7512    
    286.5866    
    304.1078    
    322.5057    
    349.3353    
    374.5760    
    380.4950    
    421.0722    
    445.7022    
    479.7974    
    506.3316    
    549.3115    
    590.8022    
    653.4551    
    720.1529    
    781.2208    
    856.2276    
    954.6688    
   1062.6938    
   1197.5706    
   1369.3597    
   1546.1077    
   1805.9503    
   2141.6472    
   2572.3003    
   3185.7129    
   3950.8696    
   4646.5874    
   4972.7217    
   4719.3926    
   4225.5503    
   3889.2039    
   3885.2146    
   4020.1072    
   4138.0659    
   4076.1484    
   3816.1057    
   3446.4197    
   3073.4546    
   2700.7813    
   2384.9421    
   2117.6448    
   1893.2983    
   1710.4448    
   1579.1033    
   1465.5310    
   1385.3048    
   1331.6588    
   1299.2802    
   1297.4004    
   1310.7429    
   1355.6570    
   1408.5510    
   1437.5685    
   1387.4005    
   1257.7052    
   1119.9662    
    988.3322    
    891.3141    
    817.7991    
    750.2948    
    715.0159    
    710.6360    
    713.2973    
    733.5914    
    809.0065    
    913.1417    
   1028.8110    
   1102.5956    
   1055.5098    
    892.4690    
    744.3375    
    641.6474    
    577.4162    
    545.5135    
    522.3235    
    530.9327    
    545.5759    
    549.0415    
    566.3096    
    594.0073    
    634.8625    
    674.1865    
    721.6417    
    764.0768    
    803.1859    
    828.1869    
    793.4359    
    711.1777    
    635.0270    
    538.0992    
    482.4175    
    442.4140    
    402.6204    
    374.8104    
    363.0547    
    342.9301    
    325.3672    
    317.8640    
    296.1921    
    279.5684    
    273.7718    
    267.9796    
    263.0209    
    248.1251    
    250.6295    
    243.1999    
    246.5299    
    233.3185    
    234.9914    
    235.0113    
    243.2997    
    244.9746    
    257.4165    
    272.3702    
    288.1855    
    305.7016    
    355.0950    
    441.2365    
    549.0089    
    643.4931    
    661.8480    
    615.6777    
    551.6722    
    478.8089    
    404.9484    
    303.3962    
    259.3500    
    227.1063    
    206.5161    
    198.3069    
    168.7783    
    167.1597    
    164.7225    
    160.6491    
    154.9425    
    165.5994    
    157.4344    
    145.1947    
    141.1317    
    142.7832    
    148.5190    
    149.3553    
    128.1602    
    135.5162    
    137.9823    
    141.2655    
    141.2845    
    139.6715    
    143.7714    
    122.5920    
    132.3876    
    133.2219    
    134.8713    
    134.0746    
    135.7247    
    132.4819    
    131.6853    
    136.5968    
    128.4629    
    121.1523    
    130.9455    
    125.2610    
    123.6507    
    120.4129    
    115.5497    
    119.6360    
    133.5027    
    134.3362    
    128.6491    
    141.7156    
    130.3160    
    120.5610    
    116.5113    
    127.1121    
    115.7345    
    116.5664    
    114.9577    
    123.9276    
    123.1316    
    126.4073    
    121.5401    
    118.3030    
    108.5634    
    111.8328    
    117.5437    
    115.1216    
    114.3263    
    116.7849    
    126.5706    
    122.5174    
    120.0932    
    127.4394    
    127.4574    
    125.0320    
    118.5378    
    116.1152    
    113.6934    
    115.3374    
    116.1688    
    117.8133    
    121.0862    
    117.8489    
    121.9358    
    117.8844    
    115.4619    
    119.5474    
    113.0578    
    106.5738    
    109.8416    
    116.3636    
    111.5026    
    117.2123    
    116.4163    
    118.8743    
    112.3853    
    116.4688    
    105.9192    
    111.6251    
    109.2039    
    102.7236    
    105.9889    
    112.5072    
    109.2733    
    112.5418    
    113.3723    
    118.2692    
    115.0328    
    114.2372    
    118.3209    
    109.3941    
    110.2240    
    106.1786    
    108.6333    
    113.5270    
    107.8549    
    113.5611    
    120.0854    
    113.5952    
    109.5479    
    108.7526    
    103.8957    
    101.4771    
    110.4285    
    112.8838    
    105.5878    
    102.3566    
    105.6215    
    107.2626    
    107.2794    
    104.0475    
    106.5006    
    106.5173    
    107.3465    
    104.1144    
    100.8837    
     96.8435    
    102.5408    
    106.6174    
    113.1349    
    113.9647    
    105.8552    
    108.3086    
    113.2012    
    110.7793    
    111.6086    
    107.5621    
    112.4545    
    105.9707    
    106.7990    
    114.1295    
    114.1458    
    110.0979    
    117.4314    
    112.5691    
    110.9596    
    116.6669    
    107.7420    
    117.5128    
    106.9620    
    104.5419    
     99.6878    
     98.8924    
     99.7201    
    108.6678    
    106.2471    
    102.2032    
    106.2792    
    110.3570    
    108.7482    
    100.6443    
    103.0953    
     98.2420    
    103.9392    
    107.2031    
    108.8440    
    113.7359    
    108.0632    
    108.8916    
    107.2825    
    102.4265    
    100.0076    
    100.8350    
     97.6052    
    100.0549    
     99.2591    
    104.9566    
    115.5360    
    113.1127    
    110.6898    
    109.0806    
    117.2248    
    114.8010    
    107.5025    
    112.3935    
    106.7218    
    120.5567    
    120.5722    
    130.3580    
    123.8586    
    109.2361    
    111.6892    
    110.8918    
    113.3459    
    119.8666    
    109.3132    
     99.5854    
    100.4124    
     94.7495    
     90.7113    
     95.5911    
     95.6064    
    106.9836    
     98.0701    
    101.3310    
     99.7229    
    107.0444    
     97.3196    
     99.7685    
    107.0899    
     98.1763    
     99.0028    
     90.9088    
     88.4930    
     95.8035    
     98.2517    
