  11100 11  1   BR92     POSU   BMW  .000 U S1 022192 00.01   1        
  PROGRAM LAMBDA-9   VERSION 02.31                                     
  USER BMW DATE & TIME  1992 02 24 10.02 10.86    4.3900    295K S     
 AU1 TM 300     0     0 YLF              .320000 -  .740000 .00020     
 FILE NAME                                ON PC = BR92.DX              
 NO_POINTS  =  2101.    pts   DATA_INTV =  .000200 ˆm                  
 MIN_LAMBDA =   .320000 ˆm     MIN_DATA =    .23220                    
 MAX_LAMBDA =   .740000 ˆm     MAX_DATA =    .94230                    
 SCANSPEED  = 15.000000 NM/MIN SLITWIDTH=   .40000 NM                  
  RESP TIME =  1.0      sec SENSITIVITY = 2          DATE=92/02/21     
 HORIZONTAL POL. (E PERPENDICULAR TO C-AXIS)                           
  This spectra is part of Database LASERS
 Database LASERS was created by Pat Cross working 
 at NASA Langley Research Center, Internal Operations Group,
 Aerospace Electronics Systems Division, Remote Sensing 
 Technology Branch. phone:(757)864-1633   fax:(757)864-7894 
     e-mail p.l.cross@larc.nasa.gov 
     homepage http://aesd.larc.nasa.gov/laser/dbmain.htm
  EOH     (1X,F11.4)                                                   
  2101.         
    197.7610    
    211.9342    
    182.1545    
    191.3264    
    190.5629    
    173.2534    
    216.4129    
    186.6163    
    184.1976    
    194.1995    
    181.8438    
    186.0456    
    200.1942    
    198.5997    
    189.5485    
    186.3001    
    190.5031    
    190.5662    
    193.1147    
    185.7247    
    188.2708    
    189.9898    
    190.8801    
    174.3966    
    191.8332    
    190.2391    
    183.6789    
    186.2233    
    176.3594    
    197.1138    
    174.8297    
    201.3822    
    204.7614    
    203.1631    
    188.3081    
    185.0588    
    174.3695    
    185.1801    
    196.8342    
    175.3774    
    182.0519    
    187.9040    
    171.4266    
    204.5969    
    190.5672    
    198.9115    
    179.1028    
    169.2473    
    184.1835    
    163.5881    
    183.4742    
    171.1354    
    196.0104    
    209.3379    
    211.8868    
    176.3264    
    182.1717    
    190.5047    
    193.8752    
    177.3855    
    203.9373    
    187.4251    
    175.9055    
    185.0579    
    175.1939    
    171.9474    
    181.9211    
    210.1466    
    200.2496    
    187.0554    
    186.2844    
    176.4185    
    181.4348    
    181.4911    
    203.0757    
    184.9112    
    207.3352    
    167.6714    
    187.5613    
    186.7893    
    198.4372    
    182.7643    
    172.0771    
    161.4050    
    174.6650    
    183.8120    
    193.7980    
    178.1346    
    191.4230    
    183.2038    
    203.1312    
    175.8739    
    164.3711    
    197.4924    
    180.9946    
    157.1126    
    195.9970    
    196.0507    
    177.0771    
    182.0899    
    162.3270    
    185.5044    
    193.0051    
    167.4356    
    171.6151    
    176.6235    
    170.8956    
    170.9482    
    179.2602    
    180.9655    
    189.2885    
    199.2768    
    204.3023    
    192.7552    
    177.0947    
    182.1048    
    189.6005    
    183.8620    
    178.9537    
    181.4844    
    195.6011    
    203.9379    
    191.5638    
    181.6891    
    178.4344    
    166.9270    
    183.4953    
    179.4131    
    175.3335    
    179.5141    
    206.0527    
    201.9583    
    170.5808    
    187.9825    
    177.2865    
    183.9477    
    183.1706    
    185.7007    
    201.4787    
    204.0145    
    223.9842    
    212.4069    
    224.0827    
    240.7725    
    223.3501    
    243.3696    
    243.4185    
    244.3006    
    256.0244    
    271.9467    
    278.6883    
    286.2743    
    308.1393    
    329.2243    
    370.6742    
    408.0929    
    442.2746    
    471.4568    
    516.2812    
    556.1599    
    631.2396    
    696.4482    
    765.7904    
    813.2857    
    821.4194    
    852.0947    
    864.7892    
    872.0729    
    883.8937    
    897.5490    
    934.0044    
    994.5093    
   1074.0651    
   1198.7358    
   1308.2136    
   1467.0995    
   1699.6943    
   1943.8040    
   2250.0786    
   2620.3181    
   3168.2708    
   3670.6953    
   3824.0337    
   3808.0769    
   4005.1440    
   4112.5815    
   4061.4951    
   4101.5874    
   4220.2427    
   3907.5698    
   2990.8259    
   2127.9727    
   1672.2167    
   1416.2212    
   1256.5891    
   1197.8462    
   1179.9657    
   1241.5078    
   1374.7583    
   1437.9036    
   1329.5438    
   1196.2234    
   1131.3894    
   1184.0450    
   1277.0466    
   1431.3466    
   1647.7413    
   1884.9434    
   1975.4734    
   1862.3184    
   1655.9366    
   1440.3785    
   1231.7219    
   1061.0442    
    866.0432    
    716.5934    
    574.3784    
    464.7321    
    418.6114    
    334.7433    
    305.3411    
    282.7464    
    266.0643    
    271.9561    
    266.9840    
    236.1792    
    222.9205    
    200.5706    
    209.7274    
    213.0860    
    194.0741    
    199.9099    
    194.1576    
    150.4734    
    173.5840    
    168.6763    
    172.0164    
    168.7590    
    165.5025    
    158.9524    
    145.0063    
    132.7270    
    158.2518    
    164.8832    
    150.1036    
    155.0811    
    134.5723    
    136.2551    
    160.1433    
    146.1946    
    151.9919    
    127.3906    
    151.2501    
    175.1846    
    138.1792    
    122.6319    
    141.5448    
    124.3513    
    142.4463    
    163.8791    
    141.7039    
    136.8158    
    167.2946    
    152.5104    
    122.9889    
    128.7672    
    141.1188    
    130.4863    
    165.8820    
    131.3850    
    146.2060    
    123.2627    
    123.3016    
    140.5706    
    188.4001    
    179.3517    
    144.7943    
    125.1343    
    139.1206    
    116.1996    
    155.6398    
    161.4412    
    162.3027    
    154.9312    
    145.9225    
    143.4952    
    154.2221    
    123.8762    
    146.0741    
    131.3314    
    107.6165    
    156.8795    
    156.0943    
    172.6095    
    147.9432    
    134.0177    
    160.3596    
    132.4513    
    138.2336    
    143.1983    
    157.2149    
    152.3151    
    157.2887    
    141.7033    
    142.5611    
    145.8845    
    134.4241    
    139.3857    
    141.0649    
    146.0307    
    156.7589    
    162.5584    
    162.5947    
    156.8677    
    161.0196    
    162.7031    
    148.7500    
    157.8346    
    150.4665    
    149.6800    
    143.9625    
    142.3555    
    131.7202    
    153.9350    
    133.4322    
    130.1867    
    137.6061    
    147.4984    
    144.2466    
    142.6391    
    145.1388    
    139.4244    
    134.5345    
    137.8523    
    141.9929    
    154.3575    
    144.5269    
    151.1372    
    123.2652    
    145.4528    
    143.8439    
    131.5661    
    138.1647    
    132.4553    
    129.2094    
    151.4133    
    149.8029    
    139.1573    
    144.1187    
    136.7632    
    132.6947    
    159.0220    
    145.8981    
    122.1409    
    141.0370    
    145.9995    
    132.8977    
    126.3721    
    132.9649    
    136.2802    
    146.1674    
    156.0669    
    152.8100    
    136.4137    
    141.3720    
    137.3010    
    123.3948    
    128.3450    
    132.4774    
    135.7917    
    136.6454    
    154.7530    
    138.3522    
    140.0270    
    134.3152    
    140.0924    
    132.7397    
    149.1934    
    148.4039    
    120.5452    
    123.8532    
    132.9020    
    144.4256    
    139.5307    
    128.0795    
    143.7006    
    127.3240    
    140.4802    
    138.8701    
    138.0817    
    140.5760    
    146.3566    
    132.4345    
    128.3668    
    142.3448    
    144.8406    
    118.6324    
    141.6188    
    131.8039    
    116.2716    
    126.9486    
    136.8194    
    132.7495    
    145.9129    
    161.5685    
    139.4060    
    141.9002    
    134.5452    
    147.7116    
    137.8888    
    137.9197    
    128.9292    
    117.4939    
    110.1630    
    109.3759    
    127.4131    
    133.1820    
    145.5236    
    147.1969    
    129.1740    
    117.7383    
    119.4054    
    135.0045    
    115.3745    
    120.3149    
    139.1976    
    144.1533    
    123.6805    
    130.2655    
    134.3949    
    138.5269    
    136.0954    
    119.7360    
    127.1366    
    121.4330    
    128.8347    
    128.8643    
    140.3761    
    139.5852    
    124.8567    
    127.3437    
    115.9108    
    115.9401    
    108.6096    
    107.0046    
    136.5086    
    133.2570    
    142.3114    
    132.4952    
    107.1502    
    119.4465    
    116.2022    
    135.8914    
    131.8204    
    133.4888    
    111.4105    
    115.5280    
    131.1154    
    131.1441    
    133.6321    
    127.1035    
    110.7645    
    122.2466    
    105.1009    
    110.0321    
    123.9691    
    123.9974    
    124.8448    
    119.9607    
    111.8085    
    129.8447    
    127.4146    
    119.2544    
    125.0133    
    122.5846    
    120.9749    
    121.8215    
    116.9392    
    107.9729    
    115.3583    
    123.5703    
    126.8735    
    113.8057    
    100.7599    
    117.9509    
    114.7062    
    118.0058    
    109.8551    
    120.5155    
    113.9977    
    121.3882    
    123.8719    
    115.7148    
    119.8330    
    113.3157    
    114.9786    
    115.0056    
    120.7597    
    110.9711    
    117.5403    
    111.0248    
    115.9576    
    106.1756    
    102.9354    
    111.1318    
    110.3409    
    119.3636    
    113.6642    
    121.0537    
    122.7171    
    115.3795    
    110.5000    
    117.8861    
    123.6415    
    117.9388    
    117.9650    
    119.6274    
    113.9277    
    116.4072    
    125.4361    
    119.7319    
    102.5931    
    102.6191    
    125.5401    
    114.1098    
    107.5969    
    123.1614    
    124.8249    
    120.7574    
    119.1467    
    114.2644    
    102.0346    
    112.6806    
    115.9770    
    106.1944    
    107.8534    
    102.1622    
    121.8060    
    119.3764    
    122.6749    
    103.0801    
    104.7387    
     99.8654    
    111.3246    
    113.8025    
    118.7346    
    109.7656    
    126.9703    
    100.0160    
    109.8406    
    116.4057    
    103.3559    
    103.3807    
    111.5744    
    105.8800    
    122.2570    
     98.5828    
    104.3211    
    107.6126    
    110.0882    
     99.4974    
    115.0417    
    123.2473    
    108.5519    
    111.0280    
    112.6869    
     98.8279    
     94.7735    
    105.4068    
    111.9665    
    117.7142    
    123.4661    
    109.5875    
     94.9186    
     96.5741    
    100.6773    
     97.4375    
    110.5249    
    113.0007    
    118.7486    
    117.1368    
    118.7963    
    104.9263    
     92.7118    
    111.5091    
     94.3896    
    105.8379    
    114.0321    
     96.0917    
     95.2996    
    105.1155    
    104.3223    
     96.1857    
     93.7629    
    102.7601    
    109.3161    
    114.2432    
    101.1974    
     99.5888    
     96.3490    
     99.6352    
    100.4745    
    100.4976    
    113.5879    
    127.5197    
    112.8164    
    108.7542    
     94.0873    
     98.1876    
     88.4281    
    102.3134    
    112.9539    
    108.8914    
    103.1981    
    109.7535    
    102.4272    
     95.1074    
     78.0260    
     92.7070    
    105.7832    
    100.0921    
     97.6673    
    105.0341    
    108.3231    
     95.2876    
     91.2344    
     79.8559    
     95.3547    
    101.9031    
    102.7416    
    109.2963    
    110.9522    
    100.3601    
     90.5973    
     95.5100    
     92.2716    
     92.2937    
    102.9186    
     88.2633    
    104.5948    
     99.7203    
    106.2718    
     94.0553    
     79.4172    
     86.7657    
     93.3054    
    103.1153    
    104.7693    
    103.1586    
     90.1322    
     89.3395    
     82.8461    
     91.8270    
     89.4041    
     87.7961    
     98.4141    
     96.8041    
    109.8848    
    102.5575    
    105.8440    
     91.9984    
     92.0197    
     87.9670    
    100.2161    
    110.0338    
    106.7881    
    108.4423    
    113.3656    
    105.2182    
     94.6341    
     88.9508    
     96.3066    
    111.0190    
    111.0399    
    121.6893    
    129.8958    
    125.0043    
    120.1155    
    121.7727    
    117.7037    
    121.8142    
    131.6584    
    127.5846    
    139.8964    
    139.9170    
    143.2187    
    152.2693    
    144.0799    
    153.1315    
    158.0828    
    147.4242    
    149.0868    
    163.0777    
    169.6815    
    181.2363    
    175.4872    
    176.3311    
    182.9462    
    187.9166    
    192.0638    
    206.9609    
    222.7163    
    240.1658    
    256.8225    
    271.0129    
    293.5924    
    304.4988    
    333.0638    
    362.5809    
    399.8466    
    442.4140    
    496.3858    
    578.4928    
    648.3341    
    732.1091    
    827.5840    
    937.9246    
   1035.1155    
   1131.6971    
   1214.3937    
   1257.0413    
   1258.0111    
   1187.1073    
   1103.8149    
   1061.1296    
   1031.5828    
    981.9686    
    879.1633    
    759.0261    
    666.2039    
    586.6691    
    526.0546    
    477.0562    
    449.6948    
    430.0948    
    412.2451    
    402.9212    
    391.9135    
    382.6145    
    391.1041    
    399.6032    
    416.6111    
    431.9525    
    443.9102    
    480.7159    
    514.2543    
    556.5982    
    608.7676    
    685.0461    
    769.2208    
    860.6475    
    951.3627    
   1046.8694    
   1105.3209    
   1113.7245    
   1076.5498    
   1076.5685    
   1097.9514    
   1137.1381    
   1138.0919    
   1110.1091    
   1066.4655    
    979.9057    
    925.1735    
    869.9304    
    798.0787    
    710.0898    
    623.1088    
    567.4113    
    497.4955    
    470.9180    
    434.1994    
    407.8430    
    377.3468    
    358.7775    
    350.3620    
    333.5403    
    346.1848    
    339.4663    
    352.1207    
    369.0200    
    397.8218    
    433.5482    
    486.5863    
    548.6448    
    621.6901    
    631.3235    
    566.8899    
    476.3858    
    403.0573    
    364.9764    
    342.2269    
    310.3163    
    293.5839    
    265.2101    
    254.4006    
    249.4264    
    222.0460    
    219.5779    
    215.4542    
    202.2348    
    201.4263    
    199.7909    
    184.1251    
    164.3774    
    174.2712    
    169.3493    
    166.0755    
    169.3844    
    152.1381    
    150.5137    
    162.8556    
    143.1633    
    139.0814    
    140.7382    
    137.4766    
    130.9409    
    134.2338    
    138.3483    
    135.9072    
    140.8421    
    153.1677    
    149.0797    
    163.8853    
    172.9541    
    163.9197    
    141.7652    
    131.1303    
    127.0541    
    128.7079    
    114.0050    
    116.4738    
    114.0391    
    119.7775    
    106.7240    
    106.7409    
    110.0234    
    101.8793    
    110.0571    
     79.1084    
     82.3788    
     75.0773    
     83.2262    
     88.9406    
     81.6328    
     80.0224    
     93.8778    
     84.1236    
     90.6531    
     76.0240    
     75.2277    
     74.4314    
     67.1375    
     65.5301    
     81.7991    
     71.2475    
     76.1399    
     87.5451    
     94.0767    
     83.5084    
     77.8314    
     73.7835    
     72.9877    
     68.1301    
     64.8991    
     70.5991    
     77.1164    
     70.6317    
     81.2150    
     90.1838    
     79.6206    
     69.8847    
     72.3377    
     78.8563    
     71.5575    
     77.2622    
     78.9046    
     74.0431    
     80.5630    
     87.9025    
     70.8415    
     74.1073    
     66.8135    
     66.8295    
     55.4884    
     60.3694    
     57.1414    
     64.4581    
     71.7814    
     67.7368    
     79.9408    
     71.8288    
     77.5332    
     76.7364    
     70.2518    
     66.2076    
     58.9214    
     66.2390    
     70.3146    
     73.5797    
     80.9113    
     76.8618    
     77.6900    
     79.3319    
     76.9085    
     75.2982    
     72.0636    
     65.5830    
     64.7872    
     72.1101    
     72.9380    
     75.3911    
     79.4712    
     85.1807    
     81.9417    
     78.7041    
     78.7195    
     64.9257    
     64.9410    
     60.8994    
     60.1034    
     64.9868    
     66.6251    
     66.6403    
     78.8415    
     74.7923    
     69.1214    
     72.3853    
     67.5280    
     73.2280    
     68.3702    
     66.7613    
     64.3416    
     70.8514    
     76.5537    
     74.1308    
     80.6484    
     79.0373    
     73.3631    
     68.5051    
     73.3929    
     66.9110    
     61.2458    
     60.4494    
     66.9555    
     71.8422    
     83.2376    
     78.3727    
     71.8865    
     78.4022    
     77.6044    
     72.7431    
     73.5703    
     71.9600    
     67.1028    
     60.6262    
     64.6974    
     67.1467    
     76.9086    
     76.1103    
     76.9377    
     86.7116    
     76.9668    
     72.1058    
     69.6840    
     60.7717    
     63.2201    
     76.2262    
     73.8030    
     77.8809    
     77.8953    
     82.7883    
     80.3629    
     78.7509    
     78.7652    
     73.9035    
     73.9178    
     73.1195    
     76.3839    
     75.5853    
     75.5996    
     70.7398    
     80.5055    
     80.5196    
     78.9074    
     81.3608    
     86.2561    
     88.7117    
     82.2165    
     86.2983    
     70.0547    
     73.3175    
     71.7072    
     71.7212    
     78.2355    
     87.1958    
     80.7023    
     77.4644    
     70.9787    
     70.1804    
     84.0113    
     84.8383    
     72.6584    
     60.4985    
     63.7569    
     62.9593    
     67.0300    
     80.0415    
     75.9910    
     80.0691    
     67.0850    
     79.2834    
     77.6715    
     78.4982    
     79.3244    
     59.8523    
     72.8507    
     65.5578    
     71.2538    
     69.6436    
     73.7176    
     81.0460    
     85.9398    
     74.5707    
     82.7128    
     64.0436    
     59.1905    
     72.1879    
     71.3890    
     68.1548    
     67.3564    
     73.8659    
     75.5044    
     90.1573    
     80.4077    
     74.7319    
     69.8723    
     79.6345    
     75.5844    
     64.2310    
