  11100 12  1 ##YSAG13.S PUC001 BMW  .000 # S1 070593 00.00  01        
  PROGRAM PE-FILECONVERT MAC VERSION 1.0                               
  USER BMW DATE & TIME  1993 06 12 00.00 05.00   10.5000    295K U     
 AU1 TM  50     0     0 YSAG             1.500000 - 2.200000 .0002     
 FILE NAME ON IBM-PC  = YSAG13.SP         ON MAC= P12063.06            
 NO_POINTS  =  3501.    pts   DATA_INTV =  .00020 nm                   
 MIN_LAMBDA =  1.500000 _m     MIN_DATA =    .52970                    
 MAX_LAMBDA =  2.200000 _m     MAX_DATA =    .81460                    
 SCANSPEED  = 15.000000 nm/min SLITWIDTH=   .20000 nmITA =   0.        
       RESP =    .500  sec        ISMS =   0.       DATE=93/05/07      
       INST = 509.                    ? =   0.                         
 0:00:05  12-07-1993                                                   
  This spectra is part of Database LASERS
 Database LASERS was created by Pat Cross working 
 at NASA Langley Research Center, Internal Operations Group,
 Aerospace Electronics Systems Division, Remote Sensing 
 Technology Branch. phone:(757)864-1633   fax:(757)864-7894 
     e-mail p.l.cross@larc.nasa.gov 
     homepage http://aesd.larc.nasa.gov/laser/dbmain.htm
  EOH.(1X,F11.4)                                                       
  3501.         
    374.7056    
    451.8480    
    485.7022    
    451.8620    
    519.6225    
    473.6286    
    466.3835    
    478.4804    
    430.1747    
    410.8902    
    418.1281    
    444.6774    
    382.0121    
    468.8525    
    345.9632    
    454.3675    
    483.3847    
    324.3822    
    514.8734    
    471.3149    
    517.3113    
    531.8712    
    553.7155    
    505.2235    
    410.9969    
    401.3718    
    447.1982    
    401.3857    
    346.0649    
    362.8931    
    377.3295    
    360.5037    
    420.7000    
    334.0945    
    401.4332    
    464.1765    
    454.5210    
    522.2817    
    495.6462    
    440.0491    
    544.1418    
    524.7346    
    507.7816    
    498.1004    
    413.5551    
    495.6940    
    442.5182    
    418.3974    
    476.3547    
    435.3000    
    346.2198    
    428.0764    
    493.3217    
    498.1715    
    546.6665    
    365.4830    
    522.4216    
    459.4982    
    411.2475    
    435.3639    
    454.6954    
    416.0846    
    490.9753    
    449.8833    
    418.5181    
    440.2397    
    454.7303    
    493.4359    
    457.1617    
    401.6837    
    500.7158    
    425.8042    
    392.0725    
    452.3642    
    430.6520    
    416.1844    
    454.8047    
    428.2587    
    481.4109    
    527.4365    
    459.6633    
    568.7208    
    537.1559    
    527.4633    
    627.1521    
    466.9525    
    508.0976    
    529.9146    
    447.6481    
    447.6515    
    491.1745    
    416.3015    
    440.4267    
    372.9735    
    363.3582    
    513.0048    
    447.7015    
    483.9623    
    520.2992    
    433.2372    
    471.8922    
    515.4706    
    525.1699    
    510.6420    
    433.2732    
    435.6938    
    438.1159    
    416.4095    
    442.9610    
    409.1942    
    426.0794    
    469.5530    
    435.7403    
    421.2804    
    496.1834    
    471.9969    
    452.6746    
    527.7003    
    542.2634    
    522.8674    
    505.9079    
    452.7107    
    525.3099    
    462.3839    
    459.9762    
    491.4156    
    351.5701    
    467.2468    
    493.8623    
    493.8728    
    481.7731    
    440.7044    
    349.2053    
    503.5786    
    552.0898    
    496.3303    
    493.9136    
    438.3355    
    431.0991    
    576.4169    
    486.6875    
    542.4211    
    525.4523    
    455.2756    
    554.5804    
    559.4506    
    474.6308    
    486.7306    
    414.2907    
    496.4270    
    554.6249    
    431.1920    
    491.6056    
    407.0924    
    445.6943    
    576.5234    
    532.8239    
    578.9716    
    583.8386    
    549.8296    
    477.1474    
    544.9877    
    552.2780    
    571.7214    
    574.1550    
    503.8071    
    562.0218    
    566.8833    
    421.6623    
    455.4547    
    530.4913    
    503.8479    
    557.2036    
    457.8932    
    465.1572    
    535.3809    
    528.1065    
    564.5302    
    569.3923    
    537.8309    
    581.5654    
    484.5469    
    482.1317    
    559.7078    
    436.2409    
    501.5142    
    477.3244    
    477.3325    
    525.7640    
    516.0783    
    494.2899    
    465.2678    
    484.6214    
    489.4702    
    506.4186    
    496.7416    
    542.8054    
    487.0753    
    547.6702    
    545.2540    
    537.9757    
    537.9792    
    635.2838    
    586.5806    
    569.5665    
    572.0057    
    596.3361    
    603.6390    
    559.8785    
    557.4584    
    572.0408    
    545.3264    
    533.2080    
    564.7711    
    523.5151    
    460.5996    
    504.1522    
    487.2104    
    574.5248    
    518.7090    
    542.9643    
    645.1642    
    652.4953    
    654.9451    
    637.8665    
    596.4614    
    562.4310    
    506.6436    
    550.2959    
    528.4683    
    511.5120    
    530.9058    
    496.9910    
    477.6457    
    446.2347    
    518.8093    
    492.1764    
    611.1511    
    601.4149    
    655.0462    
    616.0404    
    628.2305    
    543.1080    
    601.4489    
    650.2056    
    574.7050    
    582.0031    
    540.7169    
    560.1486    
    574.7331    
    565.0143    
    635.6114    
    533.4754    
    603.9496    
    560.1813    
    552.9067    
    584.5059    
    557.7729    
    526.2378    
    523.8220    
    613.7363    
    521.4077    
    565.0974    
    591.8500    
    548.1119    
    640.5798    
    587.0009    
    647.9185    
    577.2875    
    569.9994    
    709.0351    
    599.2039    
    577.3145    
    502.1040    
    589.4880    
    528.7742    
    562.7631    
    516.6663    
    506.9782    
    487.6216    
    480.3735    
    557.9343    
    621.1867    
    645.5787    
    662.6761    
    574.9694    
    626.0880    
    677.3499    
    687.1368    
    609.0562    
    623.6771    
    672.4883    
    577.4444    
    606.6522    
    570.1667    
    633.4598    
    526.4864    
    599.3750    
    631.0433    
    618.8620    
    643.2523    
    582.3672    
    582.3765    
    633.5150    
    645.7126    
    675.0231    
    626.2252    
    567.8213    
    633.5432    
    550.8288    
    565.4119    
    584.8665    
    504.7817    
    521.7461    
    587.3159    
    558.1552    
    638.4793    
    553.3123    
    584.9052    
    648.2532    
    592.2248    
    638.5110    
    638.5134    
    594.6692    
    580.0847    
    670.2692    
    638.5427    
    706.9589    
    655.6302    
    636.1208    
    680.0735    
    704.5400    
    636.1408    
    611.7736    
    616.6560    
    589.8837    
    614.2346    
    597.1960    
    531.6062    
    504.9531    
    517.0745    
    585.0597    
    568.0471    
    711.9565    
    606.9745    
    568.0658    
    611.8627    
    685.0724    
    607.0026    
    636.2465    
    672.8647    
    570.5352    
    597.2955    
    592.4321    
    585.1393    
    590.0091    
    524.4487    
    575.4340    
    570.5820    
    590.0372    
    609.5145    
    631.4458    
    582.7605    
    697.4009    
    665.6328    
    707.2016    
    746.4111    
    685.1948    
    717.0120    
    648.5728    
    714.5814    
    741.5378    
    590.1191    
    551.2401    
    660.8107    
    660.8165    
    663.2675    
    648.6268    
    631.5573    
    633.9997    
    631.5655    
    587.7444    
    675.5160    
    629.1539    
    616.9727    
    582.9045    
    597.5029    
    653.5645    
    685.3301    
    570.7785    
    673.1259    
    690.2385    
    673.1340    
    744.1255    
    638.9689    
    636.5411    
    668.2783    
    587.8474    
    670.7302    
    600.0218    
    629.2548    
    612.2039    
    534.4387    
    626.8376    
    643.9182    
    578.1676    
    636.6103    
    705.0160    
    709.9165    
    731.9720    
    751.5916    
    687.9230    
    731.9932    
    749.1589    
    744.2589    
    729.5535    
    614.7341    
    651.3146    
    709.9813    
    663.5378    
    661.1022    
    690.4269    
    636.7089    
    719.8050    
    724.7094    
    666.0090    
    783.6123    
    651.3768    
    805.7570    
    776.2637    
    763.9881    
    756.6305    
    734.5606    
    697.8366    
    734.5724    
    710.0862    
    656.3140    
    697.8684    
    585.6697    
    634.3765    
    727.2604    
    673.4387    
    663.6742    
    768.9771    
    675.9018    
    710.1487    
    693.0275    
    729.7576    
    855.1505    
    719.9677    
    766.5669    
    803.4368    
    803.4404    
    874.9188    
    855.1861    
    722.4545    
    872.4715    
    860.1396    
    833.0244    
    897.1985    
    793.6552    
    830.5777    
    810.8848    
    712.7061    
    828.1301    
    801.0590    
    724.9711    
    820.7618    
    830.6203    
    882.4329    
    934.3832    
    840.4969    
    877.5081    
    889.8654    
    838.0480    
    917.0773    
    835.5924    
    779.0074    
    951.7765    
    899.7894    
    894.8494    
    909.6925    
    823.3199    
    862.7672    
    875.1151    
    815.9465    
    867.7167    
   1003.9644    
    917.1595    
   1016.4077    
    919.6424    
   1021.3950    
   1048.7919    
    969.2274    
    946.9148    
    961.7985    
    996.5626    
    984.1501    
    979.1894    
    944.4689    
    946.9553    
    954.3952    
    971.7649    
   1009.0334    
    942.0173    
    971.7828    
   1143.8035    
   1014.0271    
   1036.4318    
   1111.2911    
   1053.8861    
   1083.8270    
   1093.8214    
   1106.3201    
   1183.9630    
   1066.3837    
   1088.8549    
   1086.3630    
   1073.8884    
   1204.0844    
   1178.9850    
   1184.0089    
   1178.9934    
   1201.5930    
   1251.9027    
   1221.7124    
   1244.3604    
   1309.9354    
   1408.7152    
   1418.8804    
   1421.4296    
   1421.4357    
   1477.4260    
   1569.3997    
   1577.0892    
   1592.4738    
   1703.0529    
   1682.4387    
   1728.8702    
   1765.0654    
   1734.0499    
   1840.2576    
   1892.2837    
   1788.3878    
   1936.6246    
   2059.7297    
   2004.6411    
   2215.4102    
   2252.5403    
   2340.3428    
   2557.5774    
   2498.3381    
   2622.4324    
   2763.6936    
   2722.8447    
   2837.4629    
   2900.5281    
   2985.8579    
   3079.8850    
   3082.6636    
   3193.8943    
   3345.0962    
   3381.6797    
   3571.3267    
   3714.0977    
   3774.3853    
   3968.0044    
   4154.8115    
   4260.7031    
   4465.3164    
   4450.4214    
   4663.1177    
   4817.3799    
   4917.8701    
   5154.4209    
   5219.4497    
   5191.5605    
   5403.3467    
   5547.9624    
   5649.2202    
   5808.5151    
   5914.3833    
   6105.1426    
   6265.0347    
   6320.8286    
   6499.1294    
   6565.5942    
   6642.3193    
   6864.1992    
   6877.7402    
   6986.3369    
   7232.9619    
   7277.8408    
   7257.1216    
   7451.4229    
   7392.2358    
   7605.4966    
   7640.6924    
   7725.4165    
   7760.8330    
   7860.3418    
   7860.3467    
   7881.7446    
   7789.2324    
   7878.1836    
   7924.6074    
   7863.9355    
   8017.7964    
   7999.8472    
   7960.4170    
   8035.7886    
   7924.6431    
   7964.0146    
   7964.0195    
   7846.1665    
   7828.3813    
   7760.9233    
   7714.9092    
   7803.5161    
   7542.4448    
   7472.5010    
   7514.4497    
   7375.0151    
   7215.9160    
   7219.3638    
   7150.5938    
   7171.2061    
   7085.4971    
   7027.4375    
   6911.8403    
   6935.5894    
   6589.1733    
   6679.3828    
   6592.5190    
   6525.9712    
   6419.9683    
   6278.4526    
   6111.9595    
   6115.2163    
   5889.0015    
   5869.7368    
   5741.7983    
   5589.3984    
   5538.8726    
   5482.1865    
   5397.4780    
   5353.7036    
   5288.2271    
   5102.3691    
   5108.5425    
   4948.8726    
   4903.0640    
   4793.5669    
   4588.4316    
   4588.4331    
   4409.2500    
   4290.7300    
   4211.1426    
   4032.5435    
   3985.9739    
   3927.9258    
   3838.2939    
   3777.8181    
   3714.6704    
   3517.9395    
   3515.1084    
   3489.6086    
   3407.6519    
   3328.8555    
   3149.9575    
   3061.1343    
   2989.2708    
   2925.9263    
   2846.3569    
   2794.4016    
   2718.0984    
   2652.9343    
   2547.5208    
   2571.8062    
   2563.7161    
   2429.3010    
   2247.9993    
   2375.8074    
   2229.4456    
   2282.5422    
   2197.6704    
   2092.1040    
   2139.5398    
   2023.8015    
   2008.0785    
   1971.4366    
   1900.9590    
   1885.3370    
   1942.7111    
   1841.1440    
   1856.7397    
   1820.3826    
   1714.3005    
   1719.4653    
   1688.5227    
   1675.6475    
   1655.0680    
   1624.2335    
   1503.9183    
   1567.8317    
   1552.4817    
   1590.9026    
   1598.5958    
   1529.4817    
   1629.4036    
   1655.1176    
   1560.1865    
   1583.2419    
   1567.8784    
   1455.5557    
   1567.8932    
   1430.1316    
   1369.2202    
   1354.0293    
   1290.8392    
   1364.1678    
   1371.7773    
   1351.5209    
   1473.4305    
   1422.5502    
   1437.8080    
   1427.6400    
   1437.8164    
   1425.1083    
   1453.0901    
   1356.6248    
   1481.1194    
   1501.5276    
   1374.3812    
   1460.7599    
   1354.1221    
   1397.2225    
   1387.0751    
   1384.5450    
   1387.0897    
   1478.6222    
   1417.5631    
   1539.8975    
   1532.2354    
   1440.4526    
   1483.7468    
   1427.7489    
   1397.2800    
   1511.8248    
   1392.2164    
   1437.9463    
   1387.1581    
   1336.5013    
   1387.1654    
   1369.4227    
   1371.9629    
   1397.3313    
   1301.1520    
   1328.9509    
   1445.6221    
   1366.9255    
   1407.5088    
   1364.3983    
   1354.2769    
   1415.1454    
   1435.4843    
   1377.0989    
   1455.8474    
   1432.9564    
   1476.2286    
   1466.0464    
   1488.9880    
   1443.1542    
   1458.4271    
   1372.0677    
   1372.0751    
   1359.4106    
   1260.9000    
   1387.3033    
   1265.9567    
   1233.2280    
   1306.3298    
   1263.4501    
   1349.3198    
   1311.3972    
   1205.5973    
   1273.5551    
   1334.1692    
   1311.4192    
   1334.1730    
   1253.4136    
   1319.0149    
   1276.1078    
   1286.2048    
   1195.5985    
   1200.6268    
   1165.4996    
   1100.4396    
   1195.6204    
   1142.9741    
   1208.1943    
   1102.9609    
   1193.1278    
   1245.9288    
   1233.3552    
   1258.5385    
   1296.3693    
   1228.3376    
   1288.8019    
   1223.3176    
   1298.9119    
   1213.2781    
   1225.8552    
   1153.0647    
   1168.1045    
   1168.1105    
   1105.5392    
   1120.5474    
   1083.0747    
   1208.2924    
   1165.6288    
   1208.2996    
   1246.0343    
   1223.3988    
   1225.9146    
   1276.2863    
   1205.8151    
   1276.2959    
   1238.5160    
   1198.3018    
   1258.6683    
   1178.2266    
   1203.3345    
   1193.2970    
   1178.2483    
   1304.0975    
   1316.7313    
   1266.2612    
   1309.1606    
   1306.6436    
   1344.5725    
   1336.9824    
   1390.1805    
   1390.1866    
   1339.5291    
   1362.3202    
   1407.9696    
   1392.7467    
   1502.1517    
   1563.4978    
   1499.6187    
   1469.0322    
   1261.3053    
   1540.4896    
   1456.3131    
   1568.6539    
   1607.1061    
   1555.8619    
   1617.3754    
   1702.2855    
   1668.8005    
   1707.4557    
   1784.9937    
   1792.7670    
   1797.9554    
   1860.2632    
   1818.7137    
   1951.4885    
   1881.0820    
   1933.2202    
   1925.4006    
   1938.4546    
   1943.6805    
   1933.2389    
   2019.5723    
   2037.9427    
   1948.9242    
   2082.6167    
   2103.6738    
   2177.5620    
   2111.5923    
   2185.5034    
   2265.0149    
   2315.5491    
   2339.5378    
   2352.8801    
   2350.2146    
   2403.6455    
   2395.6309    
   2457.2439    
   2457.2449    
   2516.3652    
   2559.4731    
   2556.7827    
   2583.7791    
   2697.5481    
   2697.5496    
   2724.7451    
   2820.2153    
   2891.4451    
   2943.6699    
   2962.9475    
   3009.8459    
   2993.2920    
   3020.9067    
   3020.9092    
   3145.6743    
   3123.4446    
   3112.3362    
   3131.7839    
   3179.1018    
   3276.8813    
   3254.4995    
   3366.7261    
   3423.0903    
   3468.3074    
   3507.9661    
   3587.5095    
   3661.6729    
   3701.7322    
   3673.1216    
   3744.7476    
   3857.0239    
   3808.0105    
   3848.3794    
   3981.6047    
   3793.6287    
   3903.3042    
   4007.7961    
   3961.2922    
   3999.0715    
   4013.6301    
   4095.3254    
   4077.7954    
   4104.1055    
   4121.6650    
   4019.4788    
   4074.8958    
   4124.6118    
   4063.2227    
   4104.1382    
   4086.6040    
   4060.3223    
   4151.0063    
   4089.5381    
   4148.0908    
   4118.7983    
   4110.0200    
   4039.9387    
   4042.8569    
   4025.3711    
   4074.9661    
   4101.2764    
   3952.7051    
   4028.3052    
   4080.8279    
   3999.2114    
   4107.1494    
   4031.2400    
   4063.3267    
   4069.1736    
   4066.2571    
   3981.7908    
   4005.0625    
   3996.3418    
   3984.7141    
   3935.3672    
   3920.8835    
   3871.7083    
   3747.8628    
   3819.7725    
   3839.9634    
   3793.8687    
   3877.5078    
   3776.6179    
   3722.0789    
   3799.6431    
   3793.8894    
   3839.9966    
   3819.8225    
   3739.3091    
   3759.4106    
   3773.7871    
   3676.2996    
   3633.4492    
   3659.1577    
   3587.8660    
   3602.1069    
   3519.6697    
   3567.9607    
   3616.3694    
   3573.6550    
   3613.5293    
   3630.6494    
   3647.7778    
   3659.2058    
   3599.3035    
   3491.3760    
   3587.9194    
   3573.6987    
   3585.0891    
   3559.4915    
   3381.2512    
   3375.6306    
   3381.2649    
   3347.5039    
   3341.8906    
   3182.3877    
   3316.6267    
   3302.6003    
   3274.5891    
   3327.8699    
   3339.1077    
   3218.6755    
   3274.6094    
   3260.6140    
   3271.8147    
   3257.8293    
   3135.1230    
   3135.1257    
   3013.2104    
   3121.2429    
   3057.4614    
   3076.8584    
   3057.4773    
   3024.2878    
   3027.0532    
   3002.2017    
   2985.6492    
   2971.8643    
   2977.3855    
   3029.8440    
   2922.3337    
   2900.3628    
   2936.0999    
   2894.8784    
